"SPL Vertical"																																																																							
"On-Axis"		"10°"		"-10°"		"20°"		"-20°"		"30°"		"-30°"		"40°"		"-40°"		"50°"		"-50°"		"60°"		"-60°"		"70°"		"-70°"		"80°"		"-80°"		"90°"		"-90°"		"100°"		"-100°"		"110°"		"-110°"		"120°"		"-120°"		"130°"		"-130°"		"140°"		"-140°"		"150°"		"-150°"		"160°"		"-160°"		"170°"		"-170°"		"180°"	
"Frequency [Hz]"	"Sound Pessure Level [dB]  / [2.83V 1m] "	"Frequency [Hz]"	"Sound Pessure Level [dB]  / [2.83V 1m] "	"Frequency [Hz]"	"Sound Pessure Level [dB]  / [2.83V 1m] "	"Frequency [Hz]"	"Sound Pessure Level [dB]  / [2.83V 1m] "	"Frequency [Hz]"	"Sound Pessure Level [dB]  / [2.83V 1m] "	"Frequency [Hz]"	"Sound Pessure Level [dB]  / [2.83V 1m] "	"Frequency [Hz]"	"Sound Pessure Level [dB]  / [2.83V 1m] "	"Frequency [Hz]"	"Sound Pessure Level [dB]  / [2.83V 1m] "	"Frequency [Hz]"	"Sound Pessure Level [dB]  / [2.83V 1m] "	"Frequency [Hz]"	"Sound Pessure Level [dB]  / [2.83V 1m] "	"Frequency [Hz]"	"Sound Pessure Level [dB]  / [2.83V 1m] "	"Frequency [Hz]"	"Sound Pessure Level [dB]  / [2.83V 1m] "	"Frequency [Hz]"	"Sound Pessure Level [dB]  / [2.83V 1m] "	"Frequency [Hz]"	"Sound Pessure Level [dB]  / [2.83V 1m] "	"Frequency [Hz]"	"Sound Pessure Level [dB]  / [2.83V 1m] "	"Frequency [Hz]"	"Sound Pessure Level [dB]  / [2.83V 1m] "	"Frequency [Hz]"	"Sound Pessure Level [dB]  / [2.83V 1m] "	"Frequency [Hz]"	"Sound Pessure Level [dB]  / [2.83V 1m] "	"Frequency [Hz]"	"Sound Pessure Level [dB]  / [2.83V 1m] "	"Frequency [Hz]"	"Sound Pessure Level [dB]  / [2.83V 1m] "	"Frequency [Hz]"	"Sound Pessure Level [dB]  / [2.83V 1m] "	"Frequency [Hz]"	"Sound Pessure Level [dB]  / [2.83V 1m] "	"Frequency [Hz]"	"Sound Pessure Level [dB]  / [2.83V 1m] "	"Frequency [Hz]"	"Sound Pessure Level [dB]  / [2.83V 1m] "	"Frequency [Hz]"	"Sound Pessure Level [dB]  / [2.83V 1m] "	"Frequency [Hz]"	"Sound Pessure Level [dB]  / [2.83V 1m] "	"Frequency [Hz]"	"Sound Pessure Level [dB]  / [2.83V 1m] "	"Frequency [Hz]"	"Sound Pessure Level [dB]  / [2.83V 1m] "	"Frequency [Hz]"	"Sound Pessure Level [dB]  / [2.83V 1m] "	"Frequency [Hz]"	"Sound Pessure Level [dB]  / [2.83V 1m] "	"Frequency [Hz]"	"Sound Pessure Level [dB]  / [2.83V 1m] "	"Frequency [Hz]"	"Sound Pessure Level [dB]  / [2.83V 1m] "	"Frequency [Hz]"	"Sound Pessure Level [dB]  / [2.83V 1m] "	"Frequency [Hz]"	"Sound Pessure Level [dB]  / [2.83V 1m] "	"Frequency [Hz]"	"Sound Pessure Level [dB]  / [2.83V 1m] "	"Frequency [Hz]"	"Sound Pessure Level [dB]  / [2.83V 1m] "
20.5078	55.7961	20.5078	55.9287	20.5078	55.6644	20.5078	56.0601	20.5078	55.5361	20.5078	56.1888	20.5078	55.4149	20.5078	56.3135	20.5078	55.3051	20.5078	56.4332	20.5078	55.212	20.5078	56.5465	20.5078	55.1415	20.5078	56.6519	20.5078	55.0996	20.5078	56.7476	20.5078	55.0918	20.5078	56.8314	20.5078	55.1222	20.5078	56.9006	20.5078	55.1925	20.5078	56.9521	20.5078	55.302	20.5078	56.9825	20.5078	55.4465	20.5078	56.9884	20.5078	55.6193	20.5078	56.9666	20.5078	55.8115	20.5078	56.9147	20.5078	56.0128	20.5078	56.8313	20.5078	56.2128	20.5078	56.7163	20.5078	56.4019	20.5078	56.5718
21.2402	51.9241	21.2402	52.1192	21.2402	51.7191	21.2402	52.302	21.2402	51.5075	21.2402	52.4712	21.2402	51.2942	21.2402	52.6257	21.2402	51.0858	21.2402	52.7646	21.2402	50.8909	21.2402	52.887	21.2402	50.7196	21.2402	52.9916	21.2402	50.5834	21.2402	53.0768	21.2402	50.4935	21.2402	53.1406	21.2402	50.4599	21.2402	53.1805	21.2402	50.4893	21.2402	53.1935	21.2402	50.584	21.2402	53.1766	21.2402	50.7409	21.2402	53.1265	21.2402	50.9516	21.2402	53.0403	21.2402	51.2035	21.2402	52.9159	21.2402	51.4812	21.2402	52.7523	21.2402	51.7686	21.2402	52.5507	21.2402	52.0507	21.2402	52.3147
21.9727	53.8309	21.9727	54.0383	21.9727	53.6058	21.9727	54.2259	21.9727	53.3665	21.9727	54.3924	21.9727	53.1182	21.9727	54.537	21.9727	52.868	21.9727	54.6593	21.9727	52.6251	21.9727	54.7587	21.9727	52.4008	21.9727	54.8347	21.9727	52.2075	21.9727	54.8863	21.9727	52.0579	21.9727	54.9122	21.9727	51.9636	21.9727	54.9104	21.9727	51.9338	21.9727	54.8789	21.9727	51.9738	21.9727	54.8149	21.9727	52.084	21.9727	54.7159	21.9727	52.2598	21.9727	54.5797	21.9727	52.4911	21.9727	54.405	21.9727	52.7639	21.9727	54.1921	21.9727	53.0617	21.9727	53.9438	21.9727	53.3676	21.9727	53.6658
22.7051	55.083	22.7051	55.1792	22.7051	54.9714	22.7051	55.2602	22.7051	54.8447	22.7051	55.3265	22.7051	54.7047	22.7051	55.3788	22.7051	54.5539	22.7051	55.4178	22.7051	54.3969	22.7051	55.4439	22.7051	54.2395	22.7051	55.4572	22.7051	54.0895	22.7051	55.4576	22.7051	53.9557	22.7051	55.4443	22.7051	53.8472	22.7051	55.4163	22.7051	53.7729	22.7051	55.3723	22.7051	53.7397	22.7051	55.3106	22.7051	53.7513	22.7051	55.23	22.7051	53.8081	22.7051	55.1292	22.7051	53.9062	22.7051	55.008	22.7051	54.0384	22.7051	54.8674	22.7051	54.1952	22.7051	54.71	22.7051	54.366	22.7051	54.5406
23.4375	41.6382	23.4375	42.203	23.4375	41.1609	23.4375	42.7614	23.4375	40.8994	23.4375	43.2593	23.4375	40.9675	23.4375	43.6702	23.4375	41.3884	23.4375	43.9832	23.4375	42.07	23.4375	44.1948	23.4375	42.8653	23.4375	44.3039	23.4375	43.6426	23.4375	44.3096	23.4375	44.312	23.4375	44.2106	23.4375	44.82	23.4375	44.0045	23.4375	45.1366	23.4375	43.6896	23.4375	45.2458	23.4375	43.2681	23.4375	45.1403	23.4375	42.7528	23.4375	44.8209	23.4375	42.1797	23.4375	44.2993	23.4375	41.6252	23.4375	43.6065	23.4375	41.2182	23.4375	42.8066	23.4375	41.1124	23.4375	42.0147	23.4375	41.3963
24.1699	43.5598	24.1699	44.2694	24.1699	42.7523	24.1699	44.8588	24.1699	41.9079	24.1699	45.3246	24.1699	41.1509	24.1699	45.6715	24.1699	40.6672	24.1699	45.9064	24.1699	40.6189	24.1699	46.0361	24.1699	41.0087	24.1699	46.066	24.1699	41.668	24.1699	45.9994	24.1699	42.3877	24.1699	45.8379	24.1699	43.0163	24.1699	45.5813	24.1699	43.4701	24.1699	45.2284	24.1699	43.7114	24.1699	44.7788	24.1699	43.7297	24.1699	44.2365	24.1699	43.5346	24.1699	43.6166	24.1699	43.1572	24.1699	42.9566	24.1699	42.6592	24.1699	42.3301	24.1699	42.1451	24.1699	41.8507	24.1699	41.7588	24.1699	41.641
25.6348	51.0286	25.6348	50.8661	25.6348	51.2904	25.6348	50.7898	25.6348	51.6519	25.6348	50.7793	25.6348	52.0987	25.6348	50.8125	25.6348	52.6041	25.6348	50.8702	25.6348	53.1341	25.6348	50.9379	25.6348	53.6539	25.6348	51.0068	25.6348	54.1317	25.6348	51.0731	25.6348	54.5412	25.6348	51.1382	25.6348	54.8619	25.6348	51.2075	25.6348	55.0796	25.6348	51.2908	25.6348	55.1856	25.6348	51.401	25.6348	55.1763	25.6348	51.5528	25.6348	55.0539	25.6348	51.7606	25.6348	54.826	25.6348	52.0345	25.6348	54.5063	25.6348	52.3766	25.6348	54.1146	25.6348	52.7785	25.6348	53.6762	25.6348	53.2207
26.3672	53.8528	26.3672	53.667	26.3672	54.1045	26.3672	53.5414	26.3672	54.4209	26.3672	53.4657	26.3672	54.7922	26.3672	53.4281	26.3672	55.2013	26.3672	53.4173	26.3672	55.6258	26.3672	53.4245	26.3672	56.0407	26.3672	53.444	26.3672	56.422	26.3672	53.4733	26.3672	56.748	26.3672	53.5132	26.3672	57.0008	26.3672	53.568	26.3672	57.1671	26.3672	53.6443	26.3672	57.2383	26.3672	53.7514	26.3672	57.2105	26.3672	53.8995	26.3672	57.0854	26.3672	54.098	26.3672	56.8696	26.3672	54.3531	26.3672	56.5756	26.3672	54.6651	26.3672	56.221	26.3672	55.0264	26.3672	55.8278	26.3672	55.4213
27.0996	56.2727	27.0996	56.0835	27.0996	56.5156	27.0996	55.9452	27.0996	56.8103	27.0996	55.8512	27.0996	57.1487	27.0996	55.7938	27.0996	57.5171	27.0996	55.7654	27.0996	57.8974	27.0996	55.7601	27.0996	58.2696	27.0996	55.7739	27.0996	58.6131	27.0996	55.8054	27.0996	58.9092	27.0996	55.8556	27.0996	59.1421	27.0996	55.9278	27.0996	59.2995	27.0996	56.0269	27.0996	59.3731	27.0996	56.159	27.0996	59.3594	27.0996	56.3303	27.0996	59.2591	27.0996	56.5457	27.0996	59.078	27.0996	56.807	27.0996	58.8263	27.0996	57.1113	27.0996	58.5187	27.0996	57.4505	27.0996	58.1734	27.0996	57.8105
27.832	58.5374	27.832	58.348	27.832	58.7746	27.832	58.2053	27.832	59.0561	27.832	58.1056	27.832	59.374	27.832	58.0434	27.832	59.716	27.832	58.0133	27.832	60.0662	27.832	58.0103	27.832	60.4073	27.832	58.0311	27.832	60.7213	27.832	58.0739	27.832	60.9919	27.832	58.1387	27.832	61.2051	27.832	58.227	27.832	61.3498	27.832	58.3417	27.832	61.4189	27.832	58.4861	27.832	61.4093	27.832	58.6637	27.832	61.3221	27.832	58.877	27.832	61.1626	27.832	59.1263	27.832	60.9403	27.832	59.4085	27.832	60.6683	27.832	59.7167	27.832	60.3623	27.832	60.0395
29.2969	62.8715	29.2969	62.647	29.2969	63.129	29.2969	62.4585	29.2969	63.4143	29.2969	62.3066	29.2969	63.7192	29.2969	62.1906	29.2969	64.0331	29.2969	62.1091	29.2969	64.3438	29.2969	62.0604	29.2969	64.6379	29.2969	62.0433	29.2969	64.902	29.2969	62.0574	29.2969	65.1234	29.2969	62.1029	29.2969	65.2914	29.2969	62.1809	29.2969	65.3971	29.2969	62.293	29.2969	65.4351	29.2969	62.4409	29.2969	65.4026	29.2969	62.6259	29.2969	65.3007	29.2969	62.848	29.2969	65.134	29.2969	63.105	29.2969	64.9106	29.2969	63.3923	29.2969	64.6416	29.2969	63.7017	29.2969	64.3406	29.2969	64.0224
30.0293	64.8173	30.0293	64.6332	30.0293	65.031	30.0293	64.4805	30.0293	65.2704	30.0293	64.3594	30.0293	65.5288	30.0293	64.2689	30.0293	65.7978	30.0293	64.2076	30.0293	66.0666	30.0293	64.1739	30.0293	66.3234	30.0293	64.1667	30.0293	66.5561	30.0293	64.1853	30.0293	66.753	30.0293	64.2297	30.0293	66.9038	30.0293	64.3006	30.0293	67.0004	30.0293	64.3988	30.0293	67.0375	30.0293	64.5256	30.0293	67.0127	30.0293	64.6817	30.0293	66.9271	30.0293	64.8673	30.0293	66.7854	30.0293	65.0811	30.0293	66.5951	30.0293	65.3196	30.0293	66.3667	30.0293	65.5771	30.0293	66.1123	30.0293	65.845
31.4941	67.5426	31.4941	67.3636	31.4941	67.749	31.4941	67.2143	31.4941	67.9785	31.4941	67.0955	31.4941	68.2246	31.4941	67.0068	31.4941	68.4791	31.4941	66.9471	31.4941	68.7318	31.4941	66.9151	31.4941	68.9717	31.4941	66.9096	31.4941	69.1877	31.4941	66.9297	31.4941	69.369	31.4941	66.9748	31.4941	69.5063	31.4941	67.0451	31.4941	69.5923	31.4941	67.1407	31.4941	69.6221	31.4941	67.2622	31.4941	69.594	31.4941	67.41	31.4941	69.5094	31.4941	67.5839	31.4941	69.373	31.4941	67.7829	31.4941	69.1923	31.4941	68.0041	31.4941	68.9774	31.4941	68.2425	31.4941	68.7396	31.4941	68.4909
32.2266	68.6791	32.2266	68.4849	32.2266	68.8984	32.2266	68.319	32.2266	69.1381	32.2266	68.1828	32.2266	69.3911	32.2266	68.0766	32.2266	69.6488	32.2266	67.9998	32.2266	69.9012	32.2266	67.9516	32.2266	70.1375	32.2266	67.931	32.2266	70.3465	32.2266	67.9373	32.2266	70.518	32.2266	67.9701	32.2266	70.643	32.2266	68.0296	32.2266	70.7145	32.2266	68.1161	32.2266	70.7281	32.2266	68.2304	32.2266	70.6824	32.2266	68.3732	32.2266	70.5794	32.2266	68.5449	32.2266	70.424	32.2266	68.7446	32.2266	70.2246	32.2266	68.9698	32.2266	69.9917	32.2266	69.2158	32.2266	69.7377	32.2266	69.4751
33.6914	71.5534	33.6914	71.3471	33.6914	71.7808	33.6914	71.1656	33.6914	72.024	33.6914	71.0113	33.6914	72.2761	33.6914	70.8856	33.6914	72.5289	33.6914	70.789	33.6914	72.773	33.6914	70.7218	33.6914	72.9985	33.6914	70.6838	33.6914	73.1954	33.6914	70.6753	33.6914	73.3542	33.6914	70.6965	33.6914	73.4669	33.6914	70.7479	33.6914	73.5271	33.6914	70.8303	33.6914	73.5309	33.6914	70.9443	33.6914	73.4769	33.6914	71.0903	33.6914	73.3669	33.6914	71.268	33.6914	73.2057	33.6914	71.4758	33.6914	73.0009	33.6914	71.71	33.6914	72.7626	33.6914	71.9651	33.6914	72.5024	33.6914	72.2327
34.4238	73.1764	34.4238	72.9738	34.4238	73.3977	34.4238	72.7938	34.4238	73.6324	34.4238	72.6389	34.4238	73.8741	34.4238	72.511	34.4238	74.1149	34.4238	72.4111	34.4238	74.3461	34.4238	72.3398	34.4238	74.5583	34.4238	72.2975	34.4238	74.7424	34.4238	72.2845	34.4238	74.8895	34.4238	72.3012	34.4238	74.9922	34.4238	72.3484	34.4238	75.0445	34.4238	72.4263	34.4238	75.0428	34.4238	72.5357	34.4238	74.9862	34.4238	72.6765	34.4238	74.8764	34.4238	72.8481	34.4238	74.7182	34.4238	73.0485	34.4238	74.519	34.4238	73.2744	34.4238	74.2884	34.4238	73.5199	34.4238	74.0374	34.4238	73.7775
35.8887	75.9218	35.8887	75.7361	35.8887	76.1243	35.8887	75.5708	35.8887	76.3387	35.8887	75.4286	35.8887	76.559	35.8887	75.3113	35.8887	76.7782	35.8887	75.2199	35.8887	76.9881	35.8887	75.1551	35.8887	77.1805	35.8887	75.1172	35.8887	77.3468	35.8887	75.1066	35.8887	77.4792	35.8887	75.1234	35.8887	77.5709	35.8887	75.168	35.8887	77.6165	35.8887	75.2405	35.8887	77.6131	35.8887	75.3411	35.8887	77.5598	35.8887	75.4697	35.8887	77.4585	35.8887	75.6255	35.8887	77.3138	35.8887	75.8067	35.8887	77.1326	35.8887	76.0102	35.8887	76.9237	35.8887	76.2312	35.8887	76.6971	35.8887	76.463
37.3535	78.5459	37.3535	78.369	37.3535	78.7375	37.3535	78.2104	37.3535	78.9391	37.3535	78.0727	37.3535	79.1449	37.3535	77.958	37.3535	79.3482	37.3535	77.8676	37.3535	79.5417	37.3535	77.8022	37.3535	79.7177	37.3535	77.7623	37.3535	79.8683	37.3535	77.7484	37.3535	79.9864	37.3535	77.7607	37.3535	80.0657	37.3535	77.7992	37.3535	80.1016	37.3535	77.8643	37.3535	80.0915	37.3535	77.9557	37.3535	80.035	37.3535	78.0734	37.3535	79.9342	37.3535	78.2164	37.3535	79.7938	37.3535	78.3831	37.3535	79.6204	37.3535	78.5709	37.3535	79.4225	37.3535	78.7755	37.3535	79.2095	37.3535	78.9909
38.8184	81.0571	38.8184	80.8899	38.8184	81.2371	38.8184	80.7392	38.8184	81.4256	38.8184	80.6076	38.8184	81.617	38.8184	80.4971	38.8184	81.8052	38.8184	80.4089	38.8184	81.9832	38.8184	80.3441	38.8184	82.1438	38.8184	80.3031	38.8184	82.2798	38.8184	80.2863	38.8184	82.3847	38.8184	80.2939	38.8184	82.4527	38.8184	80.3261	38.8184	82.4798	38.8184	80.383	38.8184	82.4638	38.8184	80.4645	38.8184	82.4045	38.8184	80.5703	38.8184	82.3045	38.8184	80.6998	38.8184	82.1682	38.8184	80.8517	38.8184	82.0023	38.8184	81.0237	38.8184	81.815	38.8184	81.212	38.8184	81.6151	38.8184	81.4113
39.5508	82.2671	39.5508	82.1039	39.5508	82.4427	39.5508	81.9565	39.5508	82.6262	39.5508	81.8278	39.5508	82.8124	39.5508	81.7197	39.5508	82.995	39.5508	81.6333	39.5508	83.1673	39.5508	81.5696	39.5508	83.3222	39.5508	81.5291	39.5508	83.4528	39.5508	81.5121	39.5508	83.5527	39.5508	81.5186	39.5508	83.6163	39.5508	81.5488	39.5508	83.6399	39.5508	81.6026	39.5508	83.6213	39.5508	81.68	39.5508	83.5608	39.5508	81.7808	39.5508	83.4608	39.5508	81.9044	39.5508	83.326	39.5508	82.0497	39.5508	83.163	39.5508	82.2145	39.5508	82.9799	39.5508	82.3956	39.5508	82.7854	39.5508	82.588
41.0156	84.3609	41.0156	84.2005	41.0156	84.5324	41.0156	84.0548	41.0156	84.7105	41.0156	83.9267	41.0156	84.8899	41.0156	83.8183	41.0156	85.0648	41.0156	83.7313	41.0156	85.2286	41.0156	83.6668	41.0156	85.3747	41.0156	83.6254	41.0156	85.4966	41.0156	83.6075	41.0156	85.5885	41.0156	83.6134	41.0156	85.6455	41.0156	83.643	41.0156	85.664	41.0156	83.6961	41.0156	85.6426	41.0156	83.7724	41.0156	85.5816	41.0156	83.8713	41.0156	85.4836	41.0156	83.992	41.0156	85.3533	41.0156	84.1328	41.0156	85.1971	41.0156	84.2916	41.0156	85.0222	41.0156	84.4652	41.0156	84.8369	41.0156	84.6489
42.4805	86.6698	42.4805	86.514	42.4805	86.835	42.4805	86.3712	42.4805	87.0051	42.4805	86.2445	42.4805	87.175	42.4805	86.136	42.4805	87.339	42.4805	86.0474	42.4805	87.4909	42.4805	85.9799	42.4805	87.6243	42.4805	85.9342	42.4805	87.7333	42.4805	85.9107	42.4805	87.8123	42.4805	85.9095	42.4805	87.857	42.4805	85.9306	42.4805	87.8642	42.4805	85.9737	42.4805	87.8329	42.4805	86.0388	42.4805	87.764	42.4805	86.1252	42.4805	87.6603	42.4805	86.2326	42.4805	87.527	42.4805	86.3598	42.4805	87.3705	42.4805	86.5052	42.4805	87.1985	42.4805	86.6664	42.4805	87.019	42.4805	86.8394
43.9453	88.7504	43.9453	88.5978	43.9453	88.9109	43.9453	88.4569	43.9453	89.0752	43.9453	88.3309	43.9453	89.2379	43.9453	88.2219	43.9453	89.3938	43.9453	88.1318	43.9453	89.5367	43.9453	88.0619	43.9453	89.6607	43.9453	88.013	43.9453	89.7602	43.9453	87.9855	43.9453	89.83	43.9453	87.9797	43.9453	89.866	43.9453	87.9954	43.9453	89.8658	43.9453	88.0326	43.9453	89.8284	43.9453	88.091	43.9453	89.755	43.9453	88.1703	43.9453	89.6489	43.9453	88.27	43.9453	89.5152	43.9453	88.3891	43.9453	89.3604	43.9453	88.5264	43.9453	89.1921	43.9453	88.6795	43.9453	89.0178	43.9453	88.8449
45.4102	90.7462	45.4102	90.596	45.4102	90.9032	45.4102	90.4564	45.4102	91.0628	45.4102	90.3304	45.4102	91.2198	45.4102	90.2206	45.4102	91.3691	45.4102	90.1289	45.4102	91.5049	45.4102	90.0567	45.4102	91.6216	45.4102	90.0049	45.4102	91.7136	45.4102	89.9741	45.4102	91.7764	45.4102	89.9646	45.4102	91.8061	45.4102	89.9765	45.4102	91.8005	45.4102	90.0096	45.4102	91.7591	45.4102	90.0636	45.4102	91.6831	45.4102	90.1383	45.4102	91.5759	45.4102	90.233	45.4102	91.4426	45.4102	90.347	45.4102	91.2898	45.4102	90.4789	45.4102	91.1246	45.4102	90.6266	45.4102	90.9546	45.4102	90.7867
47.6074	93.4593	47.6074	93.3159	47.6074	93.6081	47.6074	93.1818	47.6074	93.7582	47.6074	93.0599	47.6074	93.9049	47.6074	92.9529	47.6074	94.0429	47.6074	92.8627	47.6074	94.1671	47.6074	92.7908	47.6074	94.272	47.6074	92.7382	47.6074	94.3528	47.6074	92.7055	47.6074	94.4052	47.6074	92.6929	47.6074	94.4259	47.6074	92.7005	47.6074	94.4131	47.6074	92.7281	47.6074	94.3667	47.6074	92.7753	47.6074	94.2885	47.6074	92.8417	47.6074	94.1818	47.6074	92.927	47.6074	94.052	47.6074	93.0302	47.6074	93.9054	47.6074	93.1503	47.6074	93.7489	47.6074	93.2856	47.6074	93.5894	47.6074	93.4333
49.0723	95.17	49.0723	95.0286	49.0723	95.3162	49.0723	94.8958	49.0723	95.463	49.0723	94.7747	49.0723	95.6058	49.0723	94.668	49.0723	95.7393	49.0723	94.5777	49.0723	95.8586	49.0723	94.5052	49.0723	95.9584	49.0723	94.4517	49.0723	96.034	49.0723	94.4178	49.0723	96.0813	49.0723	94.4037	49.0723	96.0974	49.0723	94.4094	49.0723	96.0808	49.0723	94.4346	49.0723	96.0314	49.0723	94.479	49.0723	95.9513	49.0723	94.5421	49.0723	95.8441	49.0723	94.6234	49.0723	95.715	49.0723	94.7222	49.0723	95.5704	49.0723	94.8375	49.0723	95.4171	49.0723	94.9677	49.0723	95.2617	49.0723	95.1103
50.5371	96.7869	50.5371	96.6471	50.5371	96.9309	50.5371	96.5153	50.5371	97.0749	50.5371	96.3948	50.5371	97.2141	50.5371	96.2881	50.5371	97.3438	50.5371	96.1975	50.5371	97.4586	50.5371	96.1244	50.5371	97.5538	50.5371	96.0701	50.5371	97.6248	50.5371	96.0351	50.5371	97.6677	50.5371	96.0198	50.5371	97.6798	50.5371	96.0239	50.5371	97.6598	50.5371	96.0473	50.5371	97.6079	50.5371	96.0895	50.5371	97.5264	50.5371	96.15	50.5371	97.4189	50.5371	96.2282	50.5371	97.2907	50.5371	96.3235	50.5371	97.1481	50.5371	96.4348	50.5371	96.9978	50.5371	96.5607	50.5371	96.8462	50.5371	96.699
52.7344	98.9853	52.7344	98.8484	52.7344	99.1256	52.7344	98.7187	52.7344	99.265	52.7344	98.5995	52.7344	99.399	52.7344	98.4935	52.7344	99.5227	52.7344	98.4029	52.7344	99.6311	52.7344	98.3295	52.7344	99.7197	52.7344	98.2743	52.7344	99.7841	52.7344	98.2381	52.7344	99.8208	52.7344	98.221	52.7344	99.8274	52.7344	98.2231	52.7344	99.8029	52.7344	98.2439	52.7344	99.7478	52.7344	98.2829	52.7344	99.6646	52.7344	98.3395	52.7344	99.5572	52.7344	98.4131	52.7344	99.4308	52.7344	98.5031	52.7344	99.2916	52.7344	98.6084	52.7344	99.1461	52.7344	98.7279	52.7344	99.0003	52.7344	98.8595
54.1992	100.254	54.1992	100.119	54.1992	100.393	54.1992	99.9905	54.1992	100.53	54.1992	99.8723	54.1992	100.661	54.1992	99.767	54.1992	100.781	54.1992	99.677	54.1992	100.887	54.1992	99.6039	54.1992	100.972	54.1992	99.5489	54.1992	101.033	54.1992	99.5127	54.1992	101.066	54.1992	99.4955	54.1992	101.07	54.1992	99.497	54.1992	101.043	54.1992	99.517	54.1992	100.987	54.1992	99.5547	54.1992	100.903	54.1992	99.6095	54.1992	100.796	54.1992	99.6808	54.1992	100.671	54.1992	99.7678	54.1992	100.534	54.1992	99.8697	54.1992	100.392	54.1992	99.9853	54.1992	100.25	54.1992	100.113
56.3965	101.818	56.3965	101.683	56.3965	101.955	56.3965	101.554	56.3965	102.09	56.3965	101.436	56.3965	102.219	56.3965	101.329	56.3965	102.336	56.3965	101.238	56.3965	102.437	56.3965	101.164	56.3965	102.518	56.3965	101.108	56.3965	102.575	56.3965	101.07	56.3965	102.604	56.3965	101.052	56.3965	102.604	56.3965	101.052	56.3965	102.574	56.3965	101.071	56.3965	102.515	56.3965	101.108	56.3965	102.43	56.3965	101.161	56.3965	102.322	56.3965	101.231	56.3965	102.198	56.3965	101.315	56.3965	102.063	56.3965	101.415	56.3965	101.923	56.3965	101.527	56.3965	101.785	56.3965	101.651
58.5938	102.978	58.5938	102.846	58.5938	103.111	58.5938	102.721	58.5938	103.242	58.5938	102.604	58.5938	103.366	58.5938	102.5	58.5938	103.478	58.5938	102.411	58.5938	103.575	58.5938	102.338	58.5938	103.651	58.5938	102.283	58.5938	103.703	58.5938	102.247	58.5938	103.728	58.5938	102.229	58.5938	103.725	58.5938	102.23	58.5938	103.692	58.5938	102.248	58.5938	103.633	58.5938	102.283	58.5938	103.548	58.5938	102.335	58.5938	103.443	58.5938	102.401	58.5938	103.323	58.5938	102.482	58.5938	103.193	58.5938	102.576	58.5938	103.059	58.5938	102.683	58.5938	102.927	58.5938	102.801
60.0586	103.485	60.0586	103.355	60.0586	103.617	60.0586	103.23	60.0586	103.746	60.0586	103.114	60.0586	103.869	60.0586	103.011	60.0586	103.979	60.0586	102.923	60.0586	104.073	60.0586	102.851	60.0586	104.147	60.0586	102.797	60.0586	104.196	60.0586	102.761	60.0586	104.219	60.0586	102.744	60.0586	104.213	60.0586	102.746	60.0586	104.179	60.0586	102.764	60.0586	104.119	60.0586	102.799	60.0586	104.034	60.0586	102.85	60.0586	103.93	60.0586	102.915	60.0586	103.811	60.0586	102.994	60.0586	103.684	60.0586	103.086	60.0586	103.554	60.0586	103.189	60.0586	103.426	60.0586	103.303
62.2559	103.964	62.2559	103.832	62.2559	104.096	62.2559	103.706	62.2559	104.225	62.2559	103.588	62.2559	104.345	62.2559	103.482	62.2559	104.453	62.2559	103.39	62.2559	104.543	62.2559	103.315	62.2559	104.613	62.2559	103.258	62.2559	104.657	62.2559	103.22	62.2559	104.675	62.2559	103.2	62.2559	104.664	62.2559	103.199	62.2559	104.625	62.2559	103.216	62.2559	104.559	62.2559	103.249	62.2559	104.471	62.2559	103.297	62.2559	104.364	62.2559	103.36	62.2559	104.243	62.2559	103.436	62.2559	104.115	62.2559	103.525	62.2559	103.985	62.2559	103.626	62.2559	103.858	62.2559	103.738
64.4531	104.197	64.4531	104.065	64.4531	104.329	64.4531	103.938	64.4531	104.457	64.4531	103.819	64.4531	104.575	64.4531	103.711	64.4531	104.681	64.4531	103.618	64.4531	104.768	64.4531	103.542	64.4531	104.834	64.4531	103.483	64.4531	104.875	64.4531	103.443	64.4531	104.888	64.4531	103.422	64.4531	104.874	64.4531	103.419	64.4531	104.831	64.4531	103.434	64.4531	104.763	64.4531	103.465	64.4531	104.672	64.4531	103.512	64.4531	104.564	64.4531	103.574	64.4531	104.443	64.4531	103.648	64.4531	104.316	64.4531	103.735	64.4531	104.187	64.4531	103.834	64.4531	104.062	64.4531	103.943
66.6504	104.246	66.6504	104.114	66.6504	104.378	66.6504	103.985	66.6504	104.506	66.6504	103.864	66.6504	104.623	66.6504	103.754	66.6504	104.727	66.6504	103.659	66.6504	104.812	66.6504	103.58	66.6504	104.874	66.6504	103.519	66.6504	104.912	66.6504	103.477	66.6504	104.922	66.6504	103.454	66.6504	104.904	66.6504	103.45	66.6504	104.858	66.6504	103.463	66.6504	104.787	66.6504	103.494	66.6504	104.695	66.6504	103.54	66.6504	104.585	66.6504	103.6	66.6504	104.463	66.6504	103.674	66.6504	104.336	66.6504	103.76	66.6504	104.207	66.6504	103.857	66.6504	104.083	66.6504	103.966
69.5801	104.144	69.5801	104.01	69.5801	104.276	69.5801	103.879	69.5801	104.403	69.5801	103.756	69.5801	104.519	69.5801	103.644	69.5801	104.62	69.5801	103.546	69.5801	104.703	69.5801	103.464	69.5801	104.763	69.5801	103.401	69.5801	104.797	69.5801	103.357	69.5801	104.804	69.5801	103.332	69.5801	104.783	69.5801	103.327	69.5801	104.735	69.5801	103.34	69.5801	104.662	69.5801	103.37	69.5801	104.568	69.5801	103.417	69.5801	104.458	69.5801	103.477	69.5801	104.337	69.5801	103.551	69.5801	104.21	69.5801	103.637	69.5801	104.083	69.5801	103.735	69.5801	103.959	69.5801	103.843
71.7773	104.066	71.7773	103.933	71.7773	104.196	71.7773	103.804	71.7773	104.321	71.7773	103.681	71.7773	104.434	71.7773	103.569	71.7773	104.533	71.7773	103.471	71.7773	104.612	71.7773	103.39	71.7773	104.668	71.7773	103.326	71.7773	104.699	71.7773	103.282	71.7773	104.703	71.7773	103.258	71.7773	104.68	71.7773	103.253	71.7773	104.63	71.7773	103.266	71.7773	104.557	71.7773	103.296	71.7773	104.464	71.7773	103.342	71.7773	104.355	71.7773	103.402	71.7773	104.236	71.7773	103.475	71.7773	104.113	71.7773	103.559	71.7773	103.99	71.7773	103.653	71.7773	103.87	71.7773	103.758
73.9746	103.949	73.9746	103.818	73.9746	104.078	73.9746	103.689	73.9746	104.2	73.9746	103.567	73.9746	104.311	73.9746	103.455	73.9746	104.407	73.9746	103.357	73.9746	104.483	73.9746	103.275	73.9746	104.536	73.9746	103.211	73.9746	104.564	73.9746	103.167	73.9746	104.565	73.9746	103.142	73.9746	104.539	73.9746	103.137	73.9746	104.487	73.9746	103.15	73.9746	104.412	73.9746	103.18	73.9746	104.319	73.9746	103.225	73.9746	104.211	73.9746	103.283	73.9746	104.094	73.9746	103.354	73.9746	103.973	73.9746	103.436	73.9746	103.853	73.9746	103.527	73.9746	103.737	73.9746	103.628
76.9043	103.842	76.9043	103.713	76.9043	103.969	76.9043	103.586	76.9043	104.088	76.9043	103.465	76.9043	104.195	76.9043	103.354	76.9043	104.286	76.9043	103.256	76.9043	104.358	76.9043	103.174	76.9043	104.407	76.9043	103.111	76.9043	104.43	76.9043	103.066	76.9043	104.427	76.9043	103.04	76.9043	104.397	76.9043	103.034	76.9043	104.343	76.9043	103.046	76.9043	104.266	76.9043	103.074	76.9043	104.172	76.9043	103.117	76.9043	104.065	76.9043	103.173	76.9043	103.95	76.9043	103.24	76.9043	103.833	76.9043	103.318	76.9043	103.717	76.9043	103.405	76.9043	103.606	76.9043	103.501
79.834	103.754	79.834	103.626	79.834	103.879	79.834	103.499	79.834	103.997	79.834	103.379	79.834	104.103	79.834	103.269	79.834	104.192	79.834	103.172	79.834	104.261	79.834	103.092	79.834	104.308	79.834	103.03	79.834	104.329	79.834	102.987	79.834	104.324	79.834	102.964	79.834	104.293	79.834	102.96	79.834	104.238	79.834	102.974	79.834	104.162	79.834	103.005	79.834	104.069	79.834	103.049	79.834	103.965	79.834	103.106	79.834	103.854	79.834	103.173	79.834	103.741	79.834	103.249	79.834	103.631	79.834	103.333	79.834	103.525	79.834	103.425
82.7637	103.724	82.7637	103.597	82.7637	103.846	82.7637	103.471	82.7637	103.961	82.7637	103.35	82.7637	104.063	82.7637	103.239	82.7637	104.147	82.7637	103.141	82.7637	104.211	82.7637	103.058	82.7637	104.252	82.7637	102.994	82.7637	104.267	82.7637	102.949	82.7637	104.256	82.7637	102.923	82.7637	104.219	82.7637	102.916	82.7637	104.158	82.7637	102.927	82.7637	104.078	82.7637	102.953	82.7637	103.981	82.7637	102.994	82.7637	103.875	82.7637	103.046	82.7637	103.764	82.7637	103.108	82.7637	103.652	82.7637	103.18	82.7637	103.544	82.7637	103.259	82.7637	103.442	82.7637	103.347
85.6934	103.695	85.6934	103.57	85.6934	103.816	85.6934	103.445	85.6934	103.929	85.6934	103.326	85.6934	104.029	85.6934	103.215	85.6934	104.112	85.6934	103.118	85.6934	104.174	85.6934	103.035	85.6934	104.213	85.6934	102.97	85.6934	104.226	85.6934	102.924	85.6934	104.212	85.6934	102.897	85.6934	104.173	85.6934	102.887	85.6934	104.11	85.6934	102.895	85.6934	104.028	85.6934	102.919	85.6934	103.93	85.6934	102.956	85.6934	103.822	85.6934	103.005	85.6934	103.71	85.6934	103.064	85.6934	103.598	85.6934	103.132	85.6934	103.49	85.6934	103.209	85.6934	103.388	85.6934	103.295
88.623	103.632	88.623	103.506	88.623	103.756	88.623	103.381	88.623	103.871	88.623	103.262	88.623	103.973	88.623	103.153	88.623	104.058	88.623	103.059	88.623	104.122	88.623	102.982	88.623	104.163	88.623	102.923	88.623	104.178	88.623	102.885	88.623	104.168	88.623	102.867	88.623	104.133	88.623	102.868	88.623	104.075	88.623	102.886	88.623	103.999	88.623	102.92	88.623	103.909	88.623	102.966	88.623	103.81	88.623	103.023	88.623	103.706	88.623	103.088	88.623	103.603	88.623	103.159	88.623	103.504	88.623	103.237	88.623	103.409	88.623	103.32
91.5527	103.687	91.5527	103.56	91.5527	103.81	91.5527	103.433	91.5527	103.923	91.5527	103.311	91.5527	104.023	91.5527	103.199	91.5527	104.104	91.5527	103.1	91.5527	104.163	91.5527	103.018	91.5527	104.198	91.5527	102.954	91.5527	104.207	91.5527	102.91	91.5527	104.189	91.5527	102.887	91.5527	104.147	91.5527	102.882	91.5527	104.081	91.5527	102.895	91.5527	103.998	91.5527	102.924	91.5527	103.901	91.5527	102.965	91.5527	103.796	91.5527	103.017	91.5527	103.689	91.5527	103.078	91.5527	103.583	91.5527	103.145	91.5527	103.482	91.5527	103.22	91.5527	103.388	91.5527	103.3
94.4824	103.756	94.4824	103.627	94.4824	103.881	94.4824	103.498	94.4824	103.996	94.4824	103.375	94.4824	104.096	94.4824	103.261	94.4824	104.178	94.4824	103.162	94.4824	104.238	94.4824	103.08	94.4824	104.273	94.4824	103.018	94.4824	104.282	94.4824	102.977	94.4824	104.264	94.4824	102.957	94.4824	104.222	94.4824	102.957	94.4824	104.157	94.4824	102.974	94.4824	104.075	94.4824	103.008	94.4824	103.98	94.4824	103.054	94.4824	103.878	94.4824	103.11	94.4824	103.774	94.4824	103.173	94.4824	103.672	94.4824	103.243	94.4824	103.575	94.4824	103.318	94.4824	103.483	94.4824	103.398
98.1445	103.866	98.1445	103.737	98.1445	103.989	98.1445	103.608	98.1445	104.102	98.1445	103.484	98.1445	104.201	98.1445	103.37	98.1445	104.28	98.1445	103.271	98.1445	104.337	98.1445	103.188	98.1445	104.368	98.1445	103.126	98.1445	104.373	98.1445	103.085	98.1445	104.353	98.1445	103.064	98.1445	104.307	98.1445	103.064	98.1445	104.241	98.1445	103.082	98.1445	104.157	98.1445	103.116	98.1445	104.062	98.1445	103.162	98.1445	103.961	98.1445	103.217	98.1445	103.859	98.1445	103.28	98.1445	103.76	98.1445	103.347	98.1445	103.666	98.1445	103.42	98.1445	103.578	98.1445	103.496
101.807	103.973	101.807	103.843	101.807	104.098	101.807	103.712	101.807	104.211	101.807	103.586	101.807	104.309	101.807	103.47	101.807	104.386	101.807	103.368	101.807	104.44	101.807	103.284	101.807	104.468	101.807	103.22	101.807	104.47	101.807	103.179	101.807	104.445	101.807	103.159	101.807	104.396	101.807	103.161	101.807	104.326	101.807	103.18	101.807	104.24	101.807	103.215	101.807	104.144	101.807	103.262	101.807	104.043	101.807	103.319	101.807	103.942	101.807	103.381	101.807	103.846	101.807	103.448	101.807	103.755	101.807	103.518	101.807	103.671	101.807	103.592
105.469	104.094	105.469	103.962	105.469	104.218	105.469	103.83	105.469	104.331	105.469	103.702	105.469	104.428	105.469	103.583	105.469	104.503	105.469	103.479	105.469	104.554	105.469	103.392	105.469	104.579	105.469	103.327	105.469	104.577	105.469	103.283	105.469	104.548	105.469	103.262	105.469	104.495	105.469	103.262	105.469	104.422	105.469	103.281	105.469	104.332	105.469	103.315	105.469	104.234	105.469	103.362	105.469	104.131	105.469	103.418	105.469	104.03	105.469	103.479	105.469	103.934	105.469	103.545	105.469	103.845	105.469	103.614	105.469	103.763	105.469	103.686
109.131	104.238	109.131	104.107	109.131	104.362	109.131	103.975	109.131	104.474	109.131	103.847	109.131	104.569	109.131	103.729	109.131	104.643	109.131	103.625	109.131	104.692	109.131	103.54	109.131	104.715	109.131	103.476	109.131	104.711	109.131	103.434	109.131	104.68	109.131	103.415	109.131	104.625	109.131	103.417	109.131	104.55	109.131	103.438	109.131	104.461	109.131	103.475	109.131	104.363	109.131	103.523	109.131	104.263	109.131	103.579	109.131	104.165	109.131	103.64	109.131	104.074	109.131	103.704	109.131	103.989	109.131	103.771	109.131	103.911	109.131	103.839
112.793	104.35	112.793	104.216	112.793	104.476	112.793	104.081	112.793	104.589	112.793	103.951	112.793	104.685	112.793	103.83	112.793	104.758	112.793	103.725	112.793	104.807	112.793	103.639	112.793	104.828	112.793	103.575	112.793	104.821	112.793	103.535	112.793	104.787	112.793	103.518	112.793	104.73	112.793	103.523	112.793	104.652	112.793	103.547	112.793	104.562	112.793	103.586	112.793	104.464	112.793	103.637	112.793	104.364	112.793	103.695	112.793	104.268	112.793	103.758	112.793	104.179	112.793	103.822	112.793	104.098	112.793	103.887	112.793	104.023	112.793	103.954
116.455	104.519	116.455	104.382	116.455	104.648	116.455	104.243	116.455	104.763	116.455	104.108	116.455	104.858	116.455	103.983	116.455	104.931	116.455	103.874	116.455	104.976	116.455	103.784	116.455	104.994	116.455	103.718	116.455	104.983	116.455	103.677	116.455	104.944	116.455	103.661	116.455	104.882	116.455	103.667	116.455	104.801	116.455	103.694	116.455	104.707	116.455	103.736	116.455	104.607	116.455	103.79	116.455	104.507	116.455	103.85	116.455	104.413	116.455	103.914	116.455	104.326	116.455	103.979	116.455	104.248	116.455	104.044	116.455	104.176	116.455	104.109
120.85	104.75	120.85	104.611	120.85	104.879	120.85	104.47	120.85	104.992	120.85	104.331	120.85	105.085	120.85	104.202	120.85	105.154	120.85	104.089	120.85	105.194	120.85	103.996	120.85	105.205	120.85	103.928	120.85	105.187	120.85	103.885	120.85	105.141	120.85	103.869	120.85	105.071	120.85	103.876	120.85	104.984	120.85	103.903	120.85	104.885	120.85	103.947	120.85	104.782	120.85	104.002	120.85	104.682	120.85	104.063	120.85	104.589	120.85	104.126	120.85	104.507	120.85	104.188	120.85	104.434	120.85	104.249	120.85	104.369	120.85	104.308
125.244	104.914	125.244	104.773	125.244	105.044	125.244	104.628	125.244	105.157	125.244	104.485	125.244	105.249	125.244	104.351	125.244	105.315	125.244	104.232	125.244	105.351	125.244	104.133	125.244	105.357	125.244	104.058	125.244	105.333	125.244	104.009	125.244	105.279	125.244	103.987	125.244	105.202	125.244	103.989	125.244	105.105	125.244	104.013	125.244	104.997	125.244	104.053	125.244	104.886	125.244	104.104	125.244	104.779	125.244	104.161	125.244	104.68	125.244	104.221	125.244	104.594	125.244	104.28	125.244	104.52	125.244	104.338	125.244	104.454	125.244	104.395
129.639	105.033	129.639	104.892	129.639	105.163	129.639	104.746	129.639	105.276	129.639	104.602	129.639	105.366	129.639	104.468	129.639	105.43	129.639	104.348	129.639	105.465	129.639	104.248	129.639	105.469	129.639	104.173	129.639	105.441	129.639	104.124	129.639	105.385	129.639	104.101	129.639	105.304	129.639	104.103	129.639	105.204	129.639	104.126	129.639	105.094	129.639	104.165	129.639	104.981	129.639	104.215	129.639	104.873	129.639	104.271	129.639	104.775	129.639	104.329	129.639	104.69	129.639	104.387	129.639	104.617	129.639	104.442	129.639	104.554	129.639	104.497
134.033	105.158	134.033	105.013	134.033	105.292	134.033	104.862	134.033	105.408	134.033	104.714	134.033	105.5	134.033	104.574	134.033	105.564	134.033	104.451	134.033	105.598	134.033	104.349	134.033	105.6	134.033	104.272	134.033	105.57	134.033	104.223	134.033	105.51	134.033	104.201	134.033	105.425	134.033	104.205	134.033	105.322	134.033	104.231	134.033	105.208	134.033	104.273	134.033	105.093	134.033	104.327	134.033	104.984	134.033	104.386	134.033	104.886	134.033	104.446	134.033	104.802	134.033	104.504	134.033	104.731	134.033	104.56	134.033	104.67	134.033	104.614
138.428	105.304	138.428	105.156	138.428	105.439	138.428	105.003	138.428	105.556	138.428	104.852	138.428	105.65	138.428	104.71	138.428	105.715	138.428	104.585	138.428	105.748	138.428	104.482	138.428	105.749	138.428	104.405	138.428	105.718	138.428	104.357	138.428	105.657	138.428	104.337	138.428	105.571	138.428	104.344	138.428	105.467	138.428	104.373	138.428	105.353	138.428	104.419	138.428	105.238	138.428	104.476	138.428	105.13	138.428	104.538	138.428	105.034	138.428	104.6	138.428	104.952	138.428	104.66	138.428	104.883	138.428	104.716	138.428	104.824	138.428	104.77
143.555	105.424	143.555	105.272	143.555	105.562	143.555	105.114	143.555	105.681	143.555	104.958	143.555	105.775	143.555	104.812	143.555	105.839	143.555	104.683	143.555	105.87	143.555	104.577	143.555	105.868	143.555	104.499	143.555	105.832	143.555	104.452	143.555	105.767	143.555	104.435	143.555	105.676	143.555	104.446	143.555	105.569	143.555	104.48	143.555	105.452	143.555	104.531	143.555	105.337	143.555	104.592	143.555	105.23	143.555	104.658	143.555	105.137	143.555	104.723	143.555	105.06	143.555	104.784	143.555	104.996	143.555	104.84	143.555	104.942	143.555	104.891
148.682	105.501	148.682	105.345	148.682	105.643	148.682	105.182	148.682	105.764	148.682	105.021	148.682	105.858	148.682	104.869	148.682	105.921	148.682	104.735	148.682	105.951	148.682	104.625	148.682	105.945	148.682	104.546	148.682	105.906	148.682	104.498	148.682	105.836	148.682	104.483	148.682	105.741	148.682	104.498	148.682	105.63	148.682	104.536	148.682	105.512	148.682	104.593	148.682	105.396	148.682	104.66	148.682	105.29	148.682	104.73	148.682	105.2	148.682	104.799	148.682	105.127	148.682	104.862	148.682	105.067	148.682	104.918	148.682	105.016	148.682	104.969
153.809	105.589	153.809	105.43	153.809	105.731	153.809	105.263	153.809	105.852	153.809	105.097	153.809	105.944	153.809	104.94	153.809	106.004	153.809	104.801	153.809	106.029	153.809	104.687	153.809	106.019	153.809	104.604	153.809	105.974	153.809	104.555	153.809	105.899	153.809	104.541	153.809	105.8	153.809	104.558	153.809	105.686	153.809	104.6	153.809	105.566	153.809	104.662	153.809	105.451	153.809	104.735	153.809	105.349	153.809	104.811	153.809	105.264	153.809	104.883	153.809	105.196	153.809	104.949	153.809	105.143	153.809	105.006	153.809	105.098	153.809	105.054
159.668	105.759	159.668	105.595	159.668	105.906	159.668	105.42	159.668	106.026	159.668	105.244	159.668	106.116	159.668	105.076	159.668	106.171	159.668	104.926	159.668	106.188	159.668	104.801	159.668	106.167	159.668	104.709	159.668	106.11	159.668	104.654	159.668	106.021	159.668	104.635	159.668	105.907	159.668	104.649	159.668	105.778	159.668	104.692	159.668	105.646	159.668	104.754	159.668	105.52	159.668	104.827	159.668	105.412	159.668	104.903	159.668	105.324	159.668	104.975	159.668	105.258	159.668	105.038	159.668	105.21	159.668	105.09	159.668	105.17	159.668	105.133
164.795	105.926	164.795	105.766	164.795	106.067	164.795	105.594	164.795	106.183	164.795	105.419	164.795	106.267	164.795	105.25	164.795	106.316	164.795	105.097	164.795	106.327	164.795	104.967	164.795	106.299	164.795	104.869	164.795	106.235	164.795	104.805	164.795	106.139	164.795	104.777	164.795	106.019	164.795	104.783	164.795	105.883	164.795	104.817	164.795	105.745	164.795	104.871	164.795	105.614	164.795	104.937	164.795	105.502	164.795	105.008	164.795	105.412	164.795	105.075	164.795	105.345	164.795	105.133	164.795	105.296	164.795	105.182	164.795	105.258	164.795	105.222
170.654	105.971	170.654	105.808	170.654	106.114	170.654	105.634	170.654	106.232	170.654	105.458	170.654	106.316	170.654	105.29	170.654	106.365	170.654	105.139	170.654	106.374	170.654	105.014	170.654	106.344	170.654	104.921	170.654	106.277	170.654	104.865	170.654	106.177	170.654	104.846	170.654	106.052	170.654	104.861	170.654	105.914	170.654	104.903	170.654	105.774	170.654	104.964	170.654	105.646	170.654	105.036	170.654	105.539	170.654	105.11	170.654	105.458	170.654	105.177	170.654	105.401	170.654	105.234	170.654	105.363	170.654	105.278	170.654	105.336	170.654	105.31
176.514	106	176.514	105.829	176.514	106.149	176.514	105.646	176.514	106.271	176.514	105.461	176.514	106.358	176.514	105.283	176.514	106.406	176.514	105.123	176.514	106.414	176.514	104.991	176.514	106.38	176.514	104.894	176.514	106.306	176.514	104.837	176.514	106.198	176.514	104.819	176.514	106.065	176.514	104.837	176.514	105.917	176.514	104.884	176.514	105.769	176.514	104.951	176.514	105.634	176.514	105.028	176.514	105.522	176.514	105.105	176.514	105.439	176.514	105.175	176.514	105.383	176.514	105.232	176.514	105.349	176.514	105.274	176.514	105.326	176.514	105.304
183.105	106.054	183.105	105.876	183.105	106.208	183.105	105.684	183.105	106.332	183.105	105.488	183.105	106.42	183.105	105.297	183.105	106.468	183.105	105.124	183.105	106.473	183.105	104.979	183.105	106.435	183.105	104.87	183.105	106.356	183.105	104.803	183.105	106.242	183.105	104.779	183.105	106.102	183.105	104.794	183.105	105.948	183.105	104.841	183.105	105.793	183.105	104.911	183.105	105.651	183.105	104.992	183.105	105.534	183.105	105.075	183.105	105.446	183.105	105.15	183.105	105.387	183.105	105.213	183.105	105.349	183.105	105.261	183.105	105.322	183.105	105.296
189.697	106.105	189.697	105.931	189.697	106.255	189.697	105.741	189.697	106.374	189.697	105.546	189.697	106.456	189.697	105.357	189.697	106.497	189.697	105.184	189.697	106.495	189.697	105.037	189.697	106.449	189.697	104.927	189.697	106.363	189.697	104.858	189.697	106.242	189.697	104.831	189.697	106.095	189.697	104.843	189.697	105.937	189.697	104.888	189.697	105.78	189.697	104.955	189.697	105.641	189.697	105.034	189.697	105.528	189.697	105.115	189.697	105.447	189.697	105.189	189.697	105.396	189.697	105.25	189.697	105.366	189.697	105.295	189.697	105.346	189.697	105.325
196.289	106.223	196.289	106.043	196.289	106.378	196.289	105.847	196.289	106.499	196.289	105.644	196.289	106.581	196.289	105.447	196.289	106.62	196.289	105.268	196.289	106.613	196.289	105.118	196.289	106.561	196.289	105.007	196.289	106.466	196.289	104.941	196.289	106.335	196.289	104.92	196.289	106.178	196.289	104.942	196.289	106.011	196.289	104.998	196.289	105.849	196.289	105.077	196.289	105.707	196.289	105.166	196.289	105.598	196.289	105.255	196.289	105.526	196.289	105.333	196.289	105.487	196.289	105.394	196.289	105.471	196.289	105.434	196.289	105.465	196.289	105.456
202.881	106.268	202.881	106.089	202.881	106.42	202.881	105.893	202.881	106.538	202.881	105.691	202.881	106.616	202.881	105.493	202.881	106.65	202.881	105.313	202.881	106.637	202.881	105.162	202.881	106.577	202.881	105.05	202.881	106.473	202.881	104.983	202.881	106.332	202.881	104.962	202.881	106.165	202.881	104.982	202.881	105.988	202.881	105.036	202.881	105.818	202.881	105.113	202.881	105.671	202.881	105.199	202.881	105.56	202.881	105.283	202.881	105.49	202.881	105.355	202.881	105.457	202.881	105.409	202.881	105.449	202.881	105.441	202.881	105.453	202.881	105.453
210.205	106.264	210.205	106.081	210.205	106.42	210.205	105.879	210.205	106.54	210.205	105.67	210.205	106.619	210.205	105.466	210.205	106.653	210.205	105.28	210.205	106.638	210.205	105.124	210.205	106.575	210.205	105.009	210.205	106.467	210.205	104.942	210.205	106.322	210.205	104.924	210.205	106.15	210.205	104.951	210.205	105.969	210.205	105.013	210.205	105.795	210.205	105.099	210.205	105.647	210.205	105.193	210.205	105.538	210.205	105.285	210.205	105.472	210.205	105.362	210.205	105.445	210.205	105.419	210.205	105.444	210.205	105.451	210.205	105.454	210.205	105.46
217.529	106.272	217.529	106.083	217.529	106.434	217.529	105.874	217.529	106.558	217.529	105.66	217.529	106.639	217.529	105.451	217.529	106.672	217.529	105.264	217.529	106.655	217.529	105.11	217.529	106.586	217.529	105	217.529	106.47	217.529	104.941	217.529	106.315	217.529	104.934	217.529	106.134	217.529	104.972	217.529	105.944	217.529	105.045	217.529	105.764	217.529	105.139	217.529	105.615	217.529	105.241	217.529	105.51	217.529	105.336	217.529	105.454	217.529	105.414	217.529	105.439	217.529	105.468	217.529	105.452	217.529	105.494	217.529	105.476	217.529	105.494
225.586	106.333	225.586	106.137	225.586	106.497	225.586	105.918	225.586	106.62	225.586	105.689	225.586	106.696	225.586	105.464	225.586	106.721	225.586	105.258	225.586	106.693	225.586	105.086	225.586	106.611	225.586	104.962	225.586	106.479	225.586	104.893	225.586	106.307	225.586	104.882	225.586	106.107	225.586	104.922	225.586	105.9	225.586	105.002	225.586	105.707	225.586	105.107	225.586	105.551	225.586	105.22	225.586	105.445	225.586	105.325	225.586	105.395	225.586	105.41	225.586	105.391	225.586	105.466	225.586	105.418	225.586	105.49	225.586	105.456	225.586	105.484
232.91	106.429	232.91	106.233	232.91	106.593	232.91	106.013	232.91	106.715	232.91	105.783	232.91	106.788	232.91	105.555	232.91	106.808	232.91	105.345	232.91	106.772	232.91	105.167	232.91	106.678	232.91	105.034	232.91	106.531	232.91	104.955	232.91	106.337	232.91	104.932	232.91	106.113	232.91	104.96	232.91	105.876	232.91	105.026	232.91	105.654	232.91	105.117	232.91	105.469	232.91	105.215	232.91	105.342	232.91	105.305	232.91	105.278	232.91	105.373	232.91	105.272	232.91	105.413	232.91	105.304	232.91	105.419	232.91	105.352	232.91	105.396
241.699	106.338	241.699	106.128	241.699	106.515	241.699	105.894	241.699	106.649	241.699	105.651	241.699	106.733	241.699	105.411	241.699	106.762	241.699	105.192	241.699	106.731	241.699	105.008	241.699	106.64	241.699	104.874	241.699	106.492	241.699	104.796	241.699	106.294	241.699	104.775	241.699	106.06	241.699	104.806	241.699	105.809	241.699	104.876	241.699	105.567	241.699	104.967	241.699	105.359	241.699	105.062	241.699	105.206	241.699	105.146	241.699	105.12	241.699	105.206	241.699	105.095	241.699	105.236	241.699	105.115	241.699	105.234	241.699	105.159	241.699	105.205
249.756	106.397	249.756	106.166	249.756	106.591	249.756	105.91	249.756	106.741	249.756	105.643	249.756	106.838	249.756	105.38	249.756	106.878	249.756	105.139	249.756	106.859	249.756	104.938	249.756	106.779	249.756	104.79	249.756	106.643	249.756	104.706	249.756	106.456	249.756	104.685	249.756	106.233	249.756	104.72	249.756	105.992	249.756	104.797	249.756	105.756	249.756	104.898	249.756	105.549	249.756	105.004	249.756	105.388	249.756	105.101	249.756	105.284	249.756	105.178	249.756	105.234	249.756	105.228	249.756	105.224	249.756	105.25	249.756	105.235	249.756	105.249
258.545	106.439	258.545	106.217	258.545	106.623	258.545	105.968	258.545	106.761	258.545	105.705	258.545	106.846	258.545	105.444	258.545	106.874	258.545	105.203	258.545	106.843	258.545	105.001	258.545	106.754	258.545	104.854	258.545	106.61	258.545	104.774	258.545	106.421	258.545	104.76	258.545	106.201	258.545	104.807	258.545	105.972	258.545	104.9	258.545	105.758	258.545	105.02	258.545	105.582	258.545	105.147	258.545	105.461	258.545	105.264	258.545	105.398	258.545	105.359	258.545	105.385	258.545	105.424	258.545	105.404	258.545	105.455	258.545	105.434	258.545	105.456
268.066	106.337	268.066	106.11	268.066	106.527	268.066	105.855	268.066	106.67	268.066	105.587	268.066	106.762	268.066	105.319	268.066	106.797	268.066	105.072	268.066	106.773	268.066	104.862	268.066	106.691	268.066	104.706	268.066	106.555	268.066	104.614	268.066	106.372	268.066	104.589	268.066	106.157	268.066	104.624	268.066	105.929	268.066	104.706	268.066	105.711	268.066	104.815	268.066	105.524	268.066	104.934	268.066	105.384	268.066	105.046	268.066	105.297	268.066	105.139	268.066	105.257	268.066	105.205	268.066	105.25	268.066	105.244	268.066	105.256	268.066	105.258
277.588	106.037	277.588	105.826	277.588	106.212	277.588	105.589	277.588	106.342	277.588	105.343	277.588	106.419	277.588	105.107	277.588	106.443	277.588	104.901	277.588	106.411	277.588	104.746	277.588	106.33	277.588	104.658	277.588	106.206	277.588	104.644	277.588	106.056	277.588	104.701	277.588	105.898	277.588	104.818	277.588	105.757	277.588	104.976	277.588	105.655	277.588	105.155	277.588	105.605	277.588	105.337	277.588	105.608	277.588	105.505	277.588	105.654	277.588	105.647	277.588	105.722	277.588	105.755	277.588	105.789	277.588	105.823	277.588	105.835	277.588	105.849
287.109	105.77	287.109	105.541	287.109	105.95	287.109	105.278	287.109	106.072	287.109	104.999	287.109	106.129	287.109	104.726	287.109	106.116	287.109	104.486	287.109	106.032	287.109	104.308	287.109	105.882	287.109	104.214	287.109	105.676	287.109	104.217	287.109	105.435	287.109	104.314	287.109	105.189	287.109	104.487	287.109	104.98	287.109	104.709	287.109	104.846	287.109	104.95	287.109	104.813	287.109	105.184	287.109	104.884	287.109	105.389	287.109	105.034	287.109	105.548	287.109	105.222	287.109	105.65	287.109	105.408	287.109	105.687	287.109	105.56	287.109	105.656
297.363	105.922	297.363	105.68	297.363	106.109	297.363	105.399	297.363	106.233	297.363	105.094	297.363	106.285	297.363	104.787	297.363	106.258	297.363	104.505	297.363	106.15	297.363	104.274	297.363	105.961	297.363	104.12	297.363	105.699	297.363	104.062	297.363	105.381	297.363	104.1	297.363	105.039	297.363	104.223	297.363	104.719	297.363	104.404	297.363	104.473	297.363	104.616	297.363	104.347	297.363	104.827	297.363	104.355	297.363	105.012	297.363	104.478	297.363	105.153	297.363	104.671	297.363	105.234	297.363	104.879	297.363	105.247	297.363	105.061	297.363	105.189
307.617	105.879	307.617	105.601	307.617	106.098	307.617	105.276	307.617	106.245	307.617	104.927	307.617	106.313	307.617	104.581	307.617	106.294	307.617	104.269	307.617	106.184	307.617	104.027	307.617	105.983	307.617	103.885	307.617	105.697	307.617	103.86	307.617	105.34	307.617	103.948	307.617	104.943	307.617	104.126	307.617	104.556	307.617	104.36	307.617	104.242	307.617	104.612	307.617	104.062	307.617	104.849	307.617	104.047	307.617	105.044	307.617	104.182	307.617	105.179	307.617	104.416	307.617	105.24	307.617	104.682	307.617	105.218	307.617	104.926	307.617	105.111
318.604	105.874	318.604	105.585	318.604	106.098	318.604	105.243	318.604	106.246	318.604	104.864	318.604	106.313	318.604	104.474	318.604	106.291	318.604	104.105	318.604	106.176	318.604	103.794	318.604	105.966	318.604	103.582	318.604	105.664	318.604	103.493	318.604	105.282	318.604	103.531	318.604	104.845	318.604	103.678	318.604	104.4	318.604	103.895	318.604	104.008	318.604	104.141	318.604	103.739	318.604	104.375	318.604	103.637	318.604	104.566	318.604	103.705	318.604	104.694	318.604	103.897	318.604	104.742	318.604	104.145	318.604	104.706	318.604	104.389	318.604	104.584
329.59	105.994	329.59	105.699	329.59	106.22	329.59	105.347	329.59	106.37	329.59	104.954	329.59	106.435	329.59	104.543	329.59	106.41	329.59	104.146	329.59	106.291	329.59	103.802	329.59	106.074	329.59	103.552	329.59	105.762	329.59	103.427	329.59	105.364	329.59	103.435	329.59	104.903	329.59	103.558	329.59	104.425	329.59	103.76	329.59	103.991	329.59	103.995	329.59	103.674	329.59	104.221	329.59	103.527	329.59	104.407	329.59	103.559	329.59	104.529	329.59	103.728	329.59	104.571	329.59	103.965	329.59	104.529	329.59	104.206	329.59	104.403
341.309	105.794	341.309	105.472	341.309	106.041	341.309	105.086	341.309	106.206	341.309	104.652	341.309	106.281	341.309	104.197	341.309	106.263	341.309	103.759	341.309	106.147	341.309	103.384	341.309	105.929	341.309	103.123	341.309	105.613	341.309	103.012	341.309	105.207	341.309	103.058	341.309	104.738	341.309	103.234	341.309	104.249	341.309	103.49	341.309	103.806	341.309	103.774	341.309	103.485	341.309	104.039	341.309	103.34	341.309	104.251	341.309	103.379	341.309	104.387	341.309	103.558	341.309	104.436	341.309	103.806	341.309	104.393	341.309	104.057	341.309	104.262
353.76	105.945	353.76	105.621	353.76	106.19	353.76	105.226	353.76	106.35	353.76	104.77	353.76	106.42	353.76	104.275	353.76	106.397	353.76	103.772	353.76	106.274	353.76	103.308	353.76	106.049	353.76	102.939	353.76	105.722	353.76	102.716	353.76	105.302	353.76	102.666	353.76	104.81	353.76	102.773	353.76	104.29	353.76	102.991	353.76	103.804	353.76	103.261	353.76	103.426	353.76	103.528	353.76	103.217	353.76	103.75	353.76	103.188	353.76	103.904	353.76	103.303	353.76	103.975	353.76	103.495	353.76	103.959	353.76	103.697	353.76	103.861
366.211	105.948	366.211	105.617	366.211	106.197	366.211	105.212	366.211	106.357	366.211	104.744	366.211	106.423	366.211	104.234	366.211	106.39	366.211	103.714	366.211	106.253	366.211	103.229	366.211	106.009	366.211	102.838	366.211	105.661	366.211	102.595	366.211	105.22	366.211	102.53	366.211	104.717	366.211	102.634	366.211	104.202	366.211	102.86	366.211	103.748	366.211	103.149	366.211	103.433	366.211	103.445	366.211	103.303	366.211	103.705	366.211	103.348	366.211	103.904	366.211	103.508	366.211	104.025	366.211	103.709	366.211	104.062	366.211	103.891	366.211	104.015
378.662	106.256	378.662	105.926	378.662	106.5	378.662	105.52	378.662	106.65	378.662	105.048	378.662	106.701	378.662	104.53	378.662	106.644	378.662	103.997	378.662	106.473	378.662	103.492	378.662	106.182	378.662	103.072	378.662	105.771	378.662	102.793	378.662	105.247	378.662	102.692	378.662	104.642	378.662	102.767	378.662	104.017	378.662	102.978	378.662	103.467	378.662	103.266	378.662	103.106	378.662	103.572	378.662	103.005	378.662	103.852	378.662	103.142	378.662	104.071	378.662	103.424	378.662	104.208	378.662	103.739	378.662	104.248	378.662	104.006	378.662	104.18
392.578	106.092	392.578	105.771	392.578	106.33	392.578	105.374	392.578	106.479	392.578	104.915	392.578	106.533	392.578	104.412	392.578	106.485	392.578	103.899	392.578	106.328	392.578	103.421	392.578	106.056	392.578	103.035	392.578	105.663	392.578	102.795	392.578	105.153	392.578	102.73	392.578	104.548	392.578	102.833	392.578	103.897	392.578	103.059	392.578	103.289	392.578	103.35	392.578	102.843	392.578	103.647	392.578	102.658	392.578	103.903	392.578	102.751	392.578	104.086	392.578	103.039	392.578	104.172	392.578	103.404	392.578	104.146	392.578	103.745	392.578	104.002
405.762	106.011	405.762	105.666	405.762	106.266	405.762	105.24	405.762	106.425	405.762	104.745	405.762	106.482	405.762	104.205	405.762	106.431	405.762	103.656	405.762	106.263	405.762	103.155	405.762	105.97	405.762	102.772	405.762	105.547	405.762	102.568	405.762	104.998	405.762	102.573	405.762	104.343	405.762	102.763	405.762	103.638	405.762	103.075	405.762	102.987	405.762	103.434	405.762	102.528	405.762	103.777	405.762	102.375	405.762	104.055	405.762	102.536	405.762	104.239	405.762	102.907	405.762	104.308	405.762	103.35	405.762	104.251	405.762	103.756	405.762	104.065
420.41	105.992	420.41	105.639	420.41	106.253	420.41	105.199	420.41	106.417	420.41	104.68	420.41	106.48	420.41	104.102	420.41	106.435	420.41	103.498	420.41	106.274	420.41	102.927	420.41	105.987	420.41	102.465	420.41	105.564	420.41	102.192	420.41	105.001	420.41	102.15	420.41	104.309	420.41	102.322	420.41	103.529	420.41	102.639	420.41	102.753	420.41	103.013	420.41	102.13	420.41	103.368	420.41	101.819	420.41	103.651	420.41	101.882	420.41	103.826	420.41	102.233	420.41	103.872	420.41	102.71	420.41	103.779	420.41	103.173	420.41	103.542
435.059	105.775	435.059	105.399	435.059	106.049	435.059	104.921	435.059	106.218	435.059	104.35	435.059	106.282	435.059	103.705	435.059	106.235	435.059	103.025	435.059	106.071	435.059	102.381	435.059	105.783	435.059	101.874	435.059	105.363	435.059	101.608	435.059	104.81	435.059	101.629	435.059	104.137	435.059	101.901	435.059	103.389	435.059	102.322	435.059	102.656	435.059	102.782	435.059	102.078	435.059	103.199	435.059	101.796	435.059	103.518	435.059	101.861	435.059	103.712	435.059	102.191	435.059	103.765	435.059	102.641	435.059	103.674	435.059	103.084	435.059	103.442
450.439	105.755	450.439	105.406	450.439	106.001	450.439	104.954	450.439	106.145	450.439	104.399	450.439	106.186	450.439	103.751	450.439	106.12	450.439	103.036	450.439	105.938	450.439	102.311	450.439	105.631	450.439	101.67	450.439	105.187	450.439	101.232	450.439	104.601	450.439	101.089	450.439	103.877	450.439	101.244	450.439	103.052	450.439	101.607	450.439	102.212	450.439	102.057	450.439	101.508	450.439	102.487	450.439	101.115	450.439	102.829	450.439	101.118	450.439	103.044	450.439	101.443	450.439	103.111	450.439	101.92	450.439	103.022	450.439	102.396	450.439	102.778
466.553	105.726	466.553	105.383	466.553	105.965	466.553	104.933	466.553	106.102	466.553	104.372	466.553	106.134	466.553	103.709	466.553	106.059	466.553	102.966	466.553	105.868	466.553	102.203	466.553	105.55	466.553	101.52	466.553	105.094	466.553	101.053	466.553	104.494	466.553	100.909	466.553	103.759	466.553	101.091	466.553	102.929	466.553	101.496	466.553	102.094	466.553	101.987	466.553	101.411	466.553	102.449	466.553	101.048	466.553	102.812	466.553	101.079	466.553	103.038	466.553	101.42	466.553	103.107	466.553	101.903	466.553	103.016	466.553	102.382	466.553	102.768
482.666	105.567	482.666	105.242	482.666	105.793	482.666	104.812	482.666	105.922	482.666	104.273	482.666	105.951	482.666	103.625	482.666	105.876	482.666	102.886	482.666	105.688	482.666	102.105	482.666	105.375	482.666	101.378	482.666	104.925	482.666	100.846	482.666	104.33	482.666	100.635	482.666	103.595	482.666	100.774	482.666	102.753	482.666	101.169	482.666	101.887	482.666	101.67	482.666	101.144	482.666	102.15	482.666	100.704	482.666	102.527	482.666	100.668	482.666	102.756	482.666	100.979	482.666	102.814	482.666	101.471	482.666	102.696	482.666	101.983	482.666	102.411
500.244	105.706	500.244	105.319	500.244	105.975	500.244	104.811	500.244	106.127	500.244	104.179	500.244	106.161	500.244	103.423	500.244	106.071	500.244	102.563	500.244	105.851	500.244	101.657	500.244	105.492	500.244	100.827	500.244	104.982	500.244	100.257	500.244	104.316	500.244	100.108	500.244	103.503	500.244	100.388	500.244	102.585	500.244	100.939	500.244	101.66	500.244	101.564	500.244	100.901	500.244	102.122	500.244	100.496	500.244	102.536	500.244	100.522	500.244	102.771	500.244	100.885	500.244	102.817	500.244	101.406	500.244	102.679	500.244	101.933	500.244	102.375
517.822	105.498	517.822	105.162	517.822	105.705	517.822	104.683	517.822	105.792	517.822	104.05	517.822	105.766	517.822	103.253	517.822	105.631	517.822	102.299	517.822	105.388	517.822	101.23	517.822	105.033	517.822	100.166	517.822	104.562	517.822	99.3282	517.822	103.976	517.822	98.9719	517.822	103.286	517.822	99.1764	517.822	102.526	517.822	99.7575	517.822	101.759	517.822	100.448	517.822	101.079	517.822	101.059	517.822	100.585	517.822	101.498	517.822	100.346	517.822	101.73	517.822	100.366	517.822	101.755	517.822	100.593	517.822	101.597	517.822	100.937	517.822	101.301
536.133	105.77	536.133	105.611	536.133	105.786	536.133	105.293	536.133	105.669	536.133	104.797	536.133	105.426	536.133	104.102	536.133	105.051	536.133	103.188	536.133	104.538	536.133	102.045	536.133	103.873	536.133	100.7	536.133	103.055	536.133	99.2637	536.133	102.11	536.133	98.0212	536.133	101.132	536.133	97.3963	536.133	100.311	536.133	97.5822	536.133	99.8674	536.133	98.2891	536.133	99.873	536.133	99.1051	536.133	100.163	536.133	99.7962	536.133	100.504	536.133	100.29	536.133	100.75	536.133	100.597	536.133	100.869	536.133	100.766	536.133	100.89	536.133	100.853
554.443	105.361	554.443	105.264	554.443	105.399	554.443	105.087	554.443	105.38	554.443	104.798	554.443	105.291	554.443	104.357	554.443	105.105	554.443	103.729	554.443	104.784	554.443	102.888	554.443	104.284	554.443	101.832	554.443	103.56	554.443	100.617	554.443	102.573	554.443	99.4032	554.443	101.319	554.443	98.4912	554.443	99.9095	554.443	98.1958	554.443	98.7188	554.443	98.5441	554.443	98.3397	554.443	99.2564	554.443	98.92	554.443	100.042	554.443	99.9221	554.443	100.741	554.443	100.84	554.443	101.292	554.443	101.476	554.443	101.67	554.443	101.802	554.443	101.852
574.219	105.153	574.219	104.838	574.219	105.414	574.219	104.492	574.219	105.592	574.219	104.127	574.219	105.661	574.219	103.733	574.219	105.6	574.219	103.288	574.219	105.388	574.219	102.765	574.219	105.003	574.219	102.163	574.219	104.42	574.219	101.52	574.219	103.607	574.219	100.936	574.219	102.537	574.219	100.552	574.219	101.204	574.219	100.486	574.219	99.7017	574.219	100.742	574.219	98.3724	574.219	101.204	574.219	97.8521	574.219	101.714	574.219	98.4294	574.219	102.142	574.219	99.586	574.219	102.4	574.219	100.734	574.219	102.428	574.219	101.618	574.219	102.178
594.727	106.466	594.727	106.196	594.727	106.617	594.727	105.808	594.727	106.647	594.727	105.298	594.727	106.552	594.727	104.655	594.727	106.329	594.727	103.869	594.727	105.968	594.727	102.937	594.727	105.458	594.727	101.893	594.727	104.784	594.727	100.856	594.727	103.93	594.727	100.066	594.727	102.888	594.727	99.8003	594.727	101.681	594.727	100.132	594.727	100.398	594.727	100.832	594.727	99.2644	594.727	101.602	594.727	98.6379	594.727	102.241	594.727	98.7751	594.727	102.651	594.727	99.5326	594.727	102.788	594.727	100.529	594.727	102.634	594.727	101.465	594.727	102.187
615.234	106.882	615.234	106.649	615.234	107	615.234	106.311	615.234	106.991	615.234	105.873	615.234	106.845	615.234	105.323	615.234	106.552	615.234	104.639	615.234	106.102	615.234	103.787	615.234	105.483	615.234	102.743	615.234	104.686	615.234	101.528	615.234	103.713	615.234	100.282	615.234	102.601	615.234	99.3482	615.234	101.444	615.234	99.1388	615.234	100.423	615.234	99.687	615.234	99.7589	615.234	100.587	615.234	99.587	615.234	101.449	615.234	99.8629	615.234	102.08	615.234	100.425	615.234	102.415	615.234	101.095	615.234	102.448	615.234	101.726	615.234	102.203
637.207	106.487	637.207	106.25	637.207	106.644	637.207	105.949	637.207	106.699	637.207	105.591	637.207	106.636	637.207	105.163	637.207	106.441	637.207	104.627	637.207	106.099	637.207	103.934	637.207	105.596	637.207	103.038	637.207	104.911	637.207	101.93	637.207	104.026	637.207	100.696	637.207	102.932	637.207	99.6023	637.207	101.653	637.207	99.0889	637.207	100.296	637.207	99.3909	637.207	99.1375	637.207	100.225	637.207	98.6095	637.207	101.149	637.207	98.9405	637.207	101.893	637.207	99.8453	637.207	102.348	637.207	100.866	637.207	102.476	637.207	101.713	637.207	102.262
659.912	106.504	659.912	106.247	659.912	106.672	659.912	105.923	659.912	106.73	659.912	105.548	659.912	106.665	659.912	105.114	659.912	106.468	659.912	104.587	659.912	106.129	659.912	103.914	659.912	105.642	659.912	103.044	659.912	104.994	659.912	101.962	659.912	104.174	659.912	100.745	659.912	103.174	659.912	99.6544	659.912	102.001	659.912	99.1289	659.912	100.703	659.912	99.4192	659.912	99.4443	659.912	100.254	659.912	98.595	659.912	101.183	659.912	98.5875	659.912	101.928	659.912	99.3907	659.912	102.367	659.912	100.502	659.912	102.451	659.912	101.49	659.912	102.159
683.35	106.486	683.35	106.176	683.35	106.686	683.35	105.787	683.35	106.756	683.35	105.345	683.35	106.68	683.35	104.859	683.35	106.449	683.35	104.304	683.35	106.057	683.35	103.626	683.35	105.497	683.35	102.768	683.35	104.765	683.35	101.707	683.35	103.864	683.35	100.527	683.35	102.819	683.35	99.5203	683.35	101.688	683.35	99.1643	683.35	100.584	683.35	99.665	683.35	99.6737	683.35	100.659	683.35	99.169	683.35	101.668	683.35	99.2492	683.35	102.427	683.35	99.8964	683.35	102.833	683.35	100.849	683.35	102.853	683.35	101.787	683.35	102.491
706.787	105.97	706.787	105.685	706.787	106.11	706.787	105.279	706.787	106.096	706.787	104.788	706.787	105.929	706.787	104.252	706.787	105.62	706.787	103.688	706.787	105.181	706.787	103.073	706.787	104.631	706.787	102.345	706.787	103.986	706.787	101.438	706.787	103.26	706.787	100.338	706.787	102.458	706.787	99.1949	706.787	101.566	706.787	98.4372	706.787	100.565	706.787	98.5616	706.787	99.5174	706.787	99.4826	706.787	98.7223	706.787	100.639	706.787	98.6937	706.787	101.617	706.787	99.5339	706.787	102.251	706.787	100.704	706.787	102.488	706.787	101.697	706.787	102.306
731.689	106.191	731.689	105.898	731.689	106.32	731.689	105.459	731.689	106.282	731.689	104.917	731.689	106.083	731.689	104.323	731.689	105.728	731.689	103.708	731.689	105.22	731.689	103.051	731.689	104.561	731.689	102.275	731.689	103.763	731.689	101.283	731.689	102.858	731.689	100.028	731.689	101.897	731.689	98.639	731.689	100.928	731.689	97.6374	731.689	99.9697	731.689	97.7615	731.689	99.0537	731.689	98.936	731.689	98.3953	731.689	100.381	731.689	98.4616	731.689	101.587	731.689	99.4153	731.689	102.381	731.689	100.735	731.689	102.706	731.689	101.859	731.689	102.535
758.057	106.342	758.057	106.01	758.057	106.499	758.057	105.52	758.057	106.48	758.057	104.91	758.057	106.291	758.057	104.241	758.057	105.932	758.057	103.572	758.057	105.401	758.057	102.907	758.057	104.693	758.057	102.178	758.057	103.809	758.057	101.27	758.057	102.767	758.057	100.098	758.057	101.616	758.057	98.728	758.057	100.432	758.057	97.6285	758.057	99.2934	758.057	97.657	758.057	98.293	758.057	98.9075	758.057	97.683	758.057	100.503	758.057	97.9242	758.057	101.819	758.057	99.0947	758.057	102.647	758.057	100.601	758.057	102.937	758.057	101.877	758.057	102.678
784.424	106.533	784.424	106.29	784.424	106.602	784.424	105.871	784.424	106.507	784.424	105.299	784.424	106.259	784.424	104.62	784.424	105.861	784.424	103.889	784.424	105.309	784.424	103.124	784.424	104.595	784.424	102.269	784.424	103.712	784.424	101.201	784.424	102.669	784.424	99.7854	784.424	101.496	784.424	97.9962	784.424	100.231	784.424	96.3015	784.424	98.8824	784.424	96.076	784.424	97.4221	784.424	97.6678	784.424	96.0396	784.424	99.6201	784.424	95.6453	784.424	101.108	784.424	96.9761	784.424	101.967	784.424	99.0075	784.424	102.19	784.424	100.706	784.424	101.775
812.256	106.404	812.256	106.212	812.256	106.48	812.256	105.903	812.256	106.439	812.256	105.476	812.256	106.273	812.256	104.939	812.256	105.973	812.256	104.31	812.256	105.528	812.256	103.605	812.256	104.925	812.256	102.796	812.256	104.152	812.256	101.798	812.256	103.204	812.256	100.462	812.256	102.1	812.256	98.6137	812.256	100.875	812.256	96.1795	812.256	99.555	812.256	93.8828	812.256	98.1252	812.256	94.0467	812.256	96.6229	812.256	96.2743	812.256	95.5126	812.256	98.3074	812.256	95.7478	812.256	99.5616	812.256	97.2118	812.256	100.03	812.256	98.7556	812.256	99.7486
840.82	105.491	840.82	105.31	840.82	105.587	840.82	105.072	840.82	105.57	840.82	104.797	840.82	105.422	840.82	104.493	840.82	105.141	840.82	104.152	840.82	104.731	840.82	103.751	840.82	104.206	840.82	103.241	840.82	103.58	840.82	102.538	840.82	102.858	840.82	101.537	840.82	102.027	840.82	100.131	840.82	101.047	840.82	98.2905	840.82	99.8661	840.82	96.3303	840.82	98.4954	840.82	95.4041	840.82	97.1844	840.82	96.3158	840.82	96.5387	840.82	97.8863	840.82	96.9605	840.82	99.0843	840.82	97.9957	840.82	99.6507	840.82	98.9894	840.82	99.5923
870.85	105.487	870.85	105.037	870.85	105.726	870.85	104.428	870.85	105.74	870.85	103.76	870.85	105.534	870.85	103.178	870.85	105.129	870.85	102.819	870.85	104.552	870.85	102.688	870.85	103.842	870.85	102.624	870.85	103.054	870.85	102.396	870.85	102.256	870.85	101.809	870.85	101.504	870.85	100.732	870.85	100.773	870.85	99.1541	870.85	99.915	870.85	97.4444	870.85	98.7479	870.85	96.7723	870.85	97.316	870.85	97.8214	870.85	96.4026	870.85	99.428	870.85	97.1147	870.85	100.641	870.85	98.8019	870.85	101.206	870.85	100.264	870.85	101.084
901.611	105.607	901.611	105.256	901.611	105.755	901.611	104.717	901.611	105.696	901.611	104.027	901.611	105.441	901.611	103.262	901.611	105.014	901.611	102.554	901.611	104.45	901.611	102.041	901.611	103.784	901.611	101.73	901.611	103.046	901.611	101.44	901.611	102.256	901.611	100.917	901.611	101.42	901.611	99.9598	901.611	100.502	901.611	98.4977	901.611	99.4219	901.611	96.8138	901.611	98.1099	901.611	95.9698	901.611	96.7195	901.611	96.8172	901.611	95.9706	901.611	98.3642	901.611	96.6224	901.611	99.5896	901.611	98.0856	901.611	100.19	901.611	99.3864	901.611	100.119
933.105	105.908	933.105	105.446	933.105	106.096	933.105	104.752	933.105	106.001	933.105	103.897	933.105	105.64	933.105	102.975	933.105	105.043	933.105	102.103	933.105	104.241	933.105	101.413	933.105	103.271	933.105	100.976	933.105	102.196	933.105	100.695	933.105	101.15	933.105	100.326	933.105	100.323	933.105	99.62	933.105	99.7942	933.105	98.4296	933.105	99.3676	933.105	96.9076	933.105	98.6904	933.105	95.9955	933.105	97.5799	933.105	96.8796	933.105	96.5061	933.105	98.7461	933.105	96.8132	933.105	100.313	933.105	98.5261	933.105	101.131	933.105	100.187	933.105	101.096
966.064	105.75	966.064	105.264	966.064	105.909	966.064	104.476	966.064	105.762	966.064	103.475	966.064	105.358	966.064	102.415	966.064	104.751	966.064	101.473	966.064	103.984	966.064	100.78	966.064	103.085	966.064	100.355	966.064	102.085	966.064	100.078	966.064	101.052	966.064	99.7214	966.064	100.105	966.064	99.0415	966.064	99.3265	966.064	97.864	966.064	98.5968	966.064	96.2988	966.064	97.6081	966.064	95.384	966.064	96.182	966.064	96.5205	966.064	95.0502	966.064	98.6382	966.064	95.9779	966.064	100.311	966.064	98.2517	966.064	101.146	966.064	100.117	966.064	101.09
999.756	106.664	999.756	106.304	999.756	106.686	999.756	105.576	999.756	106.422	999.756	104.494	999.756	105.928	999.756	103.159	999.756	105.252	999.756	101.835	999.756	104.417	999.756	100.947	999.756	103.423	999.756	100.737	999.756	102.266	999.756	100.917	999.756	101.006	999.756	100.966	999.756	99.8576	999.756	100.483	999.756	99.0976	999.756	99.175	999.756	98.6408	999.756	96.822	999.756	97.9035	999.756	94.0945	999.756	96.2051	999.756	94.7672	999.756	93.463	999.756	97.9006	999.756	93.3213	999.756	100.188	999.756	96.9447	999.756	101.244	999.756	99.7495	999.756	101.121
1,034.91	106.503	1,034.91	106.33	1,034.91	106.358	1,034.91	105.78	1,034.91	105.964	1,034.91	104.812	1,034.91	105.39	1,034.91	103.415	1,034.91	104.693	1,034.91	101.652	1,034.91	103.898	1,034.91	99.8286	1,034.91	102.985	1,034.91	98.69	1,034.91	101.896	1,034.91	98.7673	1,034.91	100.591	1,034.91	99.4327	1,034.91	99.1908	1,034.91	99.828	1,034.91	98.1187	1,034.91	99.5259	1,034.91	97.7454	1,034.91	98.3381	1,034.91	97.6164	1,034.91	96.282	1,034.91	96.7961	1,034.91	94.3463	1,034.91	94.4833	1,034.91	94.8295	1,034.91	90.7595	1,034.91	96.6822	1,034.91	91.6244	1,034.91	97.7615	1,034.91	95.4402	1,034.91	97.4541
1,071.53	106.291	1,071.53	106.384	1,071.53	105.968	1,071.53	106.164	1,071.53	105.509	1,071.53	105.556	1,071.53	104.99	1,071.53	104.496	1,071.53	104.454	1,071.53	102.949	1,071.53	103.883	1,071.53	101.027	1,071.53	103.199	1,071.53	99.284	1,071.53	102.268	1,071.53	98.6546	1,071.53	100.935	1,071.53	99.0626	1,071.53	99.1284	1,071.53	99.4656	1,071.53	97.2819	1,071.53	99.2114	1,071.53	96.6943	1,071.53	98.0819	1,071.53	97.3828	1,071.53	96.2139	1,071.53	97.6294	1,071.53	94.7767	1,071.53	96.3564	1,071.53	95.4516	1,071.53	93.126	1,071.53	96.9474	1,071.53	90.8628	1,071.53	97.5909	1,071.53	94.1768	1,071.53	96.7944
1,109.62	105.888	1,109.62	105.989	1,109.62	105.587	1,109.62	105.844	1,109.62	105.129	1,109.62	105.404	1,109.62	104.549	1,109.62	104.617	1,109.62	103.888	1,109.62	103.435	1,109.62	103.179	1,109.62	101.857	1,109.62	102.422	1,109.62	100.075	1,109.62	101.557	1,109.62	98.6618	1,109.62	100.463	1,109.62	98.1996	1,109.62	98.9891	1,109.62	98.3473	1,109.62	97.1396	1,109.62	98.3186	1,109.62	95.6308	1,109.62	97.7031	1,109.62	95.7072	1,109.62	96.5433	1,109.62	96.5713	1,109.62	95.4306	1,109.62	96.6215	1,109.62	95.194	1,109.62	95.2662	1,109.62	95.5609	1,109.62	93.0258	1,109.62	95.4877	1,109.62	92.6525	1,109.62	94.3656
1,148.44	105.796	1,148.44	105.839	1,148.44	105.547	1,148.44	105.675	1,148.44	105.099	1,148.44	105.283	1,148.44	104.5	1,148.44	104.592	1,148.44	103.833	1,148.44	103.499	1,148.44	103.18	1,148.44	101.925	1,148.44	102.56	1,148.44	99.9707	1,148.44	101.89	1,148.44	98.1984	1,148.44	100.988	1,148.44	97.4467	1,148.44	99.6031	1,148.44	97.5529	1,148.44	97.5195	1,148.44	97.6086	1,148.44	95.1722	1,148.44	97.1889	1,148.44	94.7228	1,148.44	96.4964	1,148.44	96.155	1,148.44	96.2149	1,148.44	97.0099	1,148.44	96.734	1,148.44	96.6966	1,148.44	97.4554	1,148.44	95.9311	1,148.44	97.643	1,148.44	96.0772	1,148.44	97.0413
1,189.45	105.806	1,189.45	105.704	1,189.45	105.597	1,189.45	105.33	1,189.45	105.107	1,189.45	104.754	1,189.45	104.43	1,189.45	103.995	1,189.45	103.674	1,189.45	102.963	1,189.45	102.903	1,189.45	101.538	1,189.45	102.108	1,189.45	99.7674	1,189.45	101.254	1,189.45	98.1146	1,189.45	100.308	1,189.45	97.2617	1,189.45	99.1943	1,189.45	97.0488	1,189.45	97.7446	1,189.45	96.6221	1,189.45	95.9229	1,189.45	95.4805	1,189.45	94.5972	1,189.45	93.9808	1,189.45	95.0274	1,189.45	93.8884	1,189.45	96.0546	1,189.45	95.6043	1,189.45	96.4193	1,189.45	97.1838	1,189.45	96.3607	1,189.45	97.7975	1,189.45	96.7274	1,189.45	97.4792
1,231.2	106.07	1,231.2	106.032	1,231.2	105.748	1,231.2	105.627	1,231.2	105.151	1,231.2	104.937	1,231.2	104.41	1,231.2	104.063	1,231.2	103.643	1,231.2	103.014	1,231.2	102.899	1,231.2	101.667	1,231.2	102.155	1,231.2	99.9456	1,231.2	101.363	1,231.2	98.1208	1,231.2	100.474	1,231.2	96.947	1,231.2	99.3677	1,231.2	96.695	1,231.2	97.7812	1,231.2	96.5378	1,231.2	95.4718	1,231.2	95.7736	1,231.2	93.1793	1,231.2	94.5364	1,231.2	93.21	1,231.2	94.1996	1,231.2	94.4904	1,231.2	95.6331	1,231.2	95.2189	1,231.2	97.3303	1,231.2	95.8895	1,231.2	98.2133	1,231.2	97.0586	1,231.2	98.0615
1,274.41	105.805	1,274.41	105.866	1,274.41	105.406	1,274.41	105.526	1,274.41	104.831	1,274.41	104.877	1,274.41	104.248	1,274.41	104.105	1,274.41	103.732	1,274.41	103.267	1,274.41	103.232	1,274.41	102.152	1,274.41	102.628	1,274.41	100.467	1,274.41	101.802	1,274.41	98.2003	1,274.41	100.661	1,274.41	96.1267	1,274.41	99.1561	1,274.41	95.4884	1,274.41	97.3587	1,274.41	95.6591	1,274.41	95.7052	1,274.41	95.2881	1,274.41	95.0061	1,274.41	94.1367	1,274.41	95.1717	1,274.41	93.5233	1,274.41	95.185	1,274.41	94.9556	1,274.41	94.8412	1,274.41	96.8384	1,274.41	95.1533	1,274.41	97.7982	1,274.41	96.4712	1,274.41	97.6124
1,319.82	105.681	1,319.82	105.764	1,319.82	105.272	1,319.82	105.373	1,319.82	104.72	1,319.82	104.524	1,319.82	104.149	1,319.82	103.507	1,319.82	103.592	1,319.82	102.705	1,319.82	103.014	1,319.82	102.076	1,319.82	102.341	1,319.82	101.177	1,319.82	101.483	1,319.82	99.6991	1,319.82	100.381	1,319.82	97.7551	1,319.82	99.0458	1,319.82	95.967	1,319.82	97.5409	1,319.82	94.8749	1,319.82	95.9271	1,319.82	93.9691	1,319.82	94.3318	1,319.82	92.6581	1,319.82	93.2438	1,319.82	91.9767	1,319.82	93.1455	1,319.82	93.5436	1,319.82	93.7366	1,319.82	95.6745	1,319.82	94.7503	1,319.82	96.8723	1,319.82	96.0157	1,319.82	96.9123
1,365.97	105.342	1,365.97	105.568	1,365.97	104.881	1,365.97	105.334	1,365.97	104.362	1,365.97	104.507	1,365.97	103.849	1,365.97	103.195	1,365.97	103.338	1,365.97	101.865	1,365.97	102.801	1,365.97	101.001	1,365.97	102.18	1,365.97	100.444	1,365.97	101.392	1,365.97	99.7257	1,365.97	100.348	1,365.97	98.728	1,365.97	98.9438	1,365.97	97.6607	1,365.97	97.0683	1,365.97	96.629	1,365.97	94.8658	1,365.97	95.3402	1,365.97	93.4193	1,365.97	93.5189	1,365.97	93.4514	1,365.97	92.0722	1,365.97	93.4114	1,365.97	93.0069	1,365.97	92.6339	1,365.97	95.0023	1,365.97	92.8625	1,365.97	96.1835	1,365.97	94.7077	1,365.97	96.0875
1,414.31	105.315	1,414.31	105.509	1,414.31	105.009	1,414.31	105.421	1,414.31	104.603	1,414.31	104.794	1,414.31	104.074	1,414.31	103.483	1,414.31	103.484	1,414.31	101.659	1,414.31	102.926	1,414.31	99.9692	1,414.31	102.419	1,414.31	99.0528	1,414.31	101.864	1,414.31	98.668	1,414.31	101.056	1,414.31	98.272	1,414.31	99.6847	1,414.31	97.6459	1,414.31	97.3752	1,414.31	96.6866	1,414.31	94.1114	1,414.31	95.2198	1,414.31	92.1293	1,414.31	93.2403	1,414.31	93.0257	1,414.31	91.9374	1,414.31	93.4952	1,414.31	93.0891	1,414.31	92.8046	1,414.31	94.9985	1,414.31	92.6082	1,414.31	95.9478	1,414.31	94.0891	1,414.31	95.5827
1,464.11	105.484	1,464.11	105.379	1,464.11	105.311	1,464.11	105.005	1,464.11	104.842	1,464.11	104.257	1,464.11	104.145	1,464.11	102.987	1,464.11	103.351	1,464.11	101.2	1,464.11	102.559	1,464.11	99.2398	1,464.11	101.793	1,464.11	97.6776	1,464.11	101.013	1,464.11	96.7215	1,464.11	100.087	1,464.11	96.0772	1,464.11	98.747	1,464.11	95.4446	1,464.11	96.6577	1,464.11	94.6048	1,464.11	93.8733	1,464.11	93.3617	1,464.11	92.0198	1,464.11	91.877	1,464.11	92.1673	1,464.11	91.3773	1,464.11	92.3141	1,464.11	92.7025	1,464.11	92.2079	1,464.11	94.3353	1,464.11	92.8934	1,464.11	95.1693	1,464.11	94.1338	1,464.11	95.0425
1,515.38	105.49	1,515.38	105.179	1,515.38	105.385	1,515.38	104.519	1,515.38	104.866	1,515.38	103.545	1,515.38	104.032	1,515.38	102.185	1,515.38	103.008	1,515.38	100.369	1,515.38	101.878	1,515.38	98.2379	1,515.38	100.701	1,515.38	96.263	1,515.38	99.587	1,515.38	94.9957	1,515.38	98.6398	1,515.38	94.4688	1,515.38	97.6975	1,515.38	94.1998	1,515.38	96.2292	1,515.38	93.6428	1,515.38	93.6349	1,515.38	92.3831	1,515.38	90.221	1,515.38	90.3892	1,515.38	89.3801	1,515.38	89.1241	1,515.38	90.665	1,515.38	90.5136	1,515.38	91.2032	1,515.38	92.5323	1,515.38	91.6338	1,515.38	93.6326	1,515.38	92.6986	1,515.38	93.6171
1,568.85	105.328	1,568.85	104.966	1,568.85	105.238	1,568.85	104.167	1,568.85	104.747	1,568.85	103.03	1,568.85	103.909	1,568.85	101.639	1,568.85	102.76	1,568.85	99.9463	1,568.85	101.344	1,568.85	97.8674	1,568.85	99.7412	1,568.85	95.6712	1,568.85	98.1105	1,568.85	94.368	1,568.85	96.699	1,568.85	94.4399	1,568.85	95.5726	1,568.85	94.7465	1,568.85	94.1895	1,568.85	94.3199	1,568.85	91.5828	1,568.85	92.7811	1,568.85	87.3445	1,568.85	90.1296	1,568.85	86.7265	1,568.85	87.9212	1,568.85	89.5699	1,568.85	88.954	1,568.85	90.6439	1,568.85	90.8752	1,568.85	90.61	1,568.85	91.8051	1,568.85	90.9201	1,568.85	91.6497
1,624.51	105.04	1,624.51	104.568	1,624.51	105.094	1,624.51	103.661	1,624.51	104.705	1,624.51	102.276	1,624.51	103.852	1,624.51	100.492	1,624.51	102.551	1,624.51	98.6236	1,624.51	100.862	1,624.51	96.8511	1,624.51	98.8609	1,624.51	94.7772	1,624.51	96.6383	1,624.51	92.2054	1,624.51	94.3905	1,624.51	90.8028	1,624.51	92.5704	1,624.51	91.6757	1,624.51	91.391	1,624.51	92.3622	1,624.51	89.9108	1,624.51	91.6397	1,624.51	86.6831	1,624.51	89.4619	1,624.51	83.4358	1,624.51	86.9408	1,624.51	87.3577	1,624.51	86.9466	1,624.51	90.3532	1,624.51	88.775	1,624.51	91.2637	1,624.51	90.165	1,624.51	91.1482	1,624.51	90.8079
1,681.64	104.965	1,681.64	104.136	1,681.64	105.213	1,681.64	102.796	1,681.64	104.812	1,681.64	100.884	1,681.64	103.743	1,681.64	98.1951	1,681.64	102.045	1,681.64	94.8709	1,681.64	99.8293	1,681.64	92.2643	1,681.64	97.2755	1,681.64	90.9756	1,681.64	94.5641	1,681.64	89.6905	1,681.64	91.7761	1,681.64	89.2913	1,681.64	88.9568	1,681.64	90.5852	1,681.64	86.7452	1,681.64	91.551	1,681.64	85.8563	1,681.64	91.0998	1,681.64	84.4263	1,681.64	89.0286	1,681.64	81.6515	1,681.64	85.8075	1,681.64	85.5571	1,681.64	83.7203	1,681.64	89.6852	1,681.64	83.7587	1,681.64	90.985	1,681.64	85.1174	1,681.64	90.1289	1,681.64	87.7837
1,740.97	105.208	1,740.97	104.006	1,740.97	105.521	1,740.97	101.959	1,740.97	104.932	1,740.97	99.0545	1,740.97	103.481	1,740.97	95.0292	1,740.97	101.259	1,740.97	89.326	1,740.97	98.3979	1,740.97	84.2294	1,740.97	95.0433	1,740.97	85.4906	1,740.97	91.3007	1,740.97	86.4029	1,740.97	87.1371	1,740.97	86.8615	1,740.97	82.1369	1,740.97	88.2819	1,740.97	73.4748	1,740.97	89.64	1,740.97	68.0029	1,740.97	89.8621	1,740.97	76.6869	1,740.97	88.6093	1,740.97	76.9977	1,740.97	85.6631	1,740.97	82.3292	1,740.97	80.5521	1,740.97	87.9087	1,740.97	78.3119	1,740.97	90.3501	1,740.97	84.4136	1,740.97	90.4014	1,740.97	88.4598
1,802.49	105.378	1,802.49	104.159	1,802.49	105.568	1,802.49	101.81	1,802.49	104.821	1,802.49	98.2165	1,802.49	103.196	1,802.49	93.0656	1,802.49	100.697	1,802.49	84.832	1,802.49	97.3068	1,802.49	77.5219	1,802.49	92.9786	1,802.49	85.2076	1,802.49	87.3132	1,802.49	87.4542	1,802.49	77.555	1,802.49	87.3615	1,802.49	71.4948	1,802.49	86.3019	1,802.49	80.0646	1,802.49	85.8807	1,802.49	80.8613	1,802.49	86.5606	1,802.49	78.5484	1,802.49	86.8198	1,802.49	76.8453	1,802.49	85.2187	1,802.49	82.5598	1,802.49	79.2543	1,802.49	87.7385	1,802.49	73.3228	1,802.49	90.4788	1,802.49	85.4521	1,802.49	91.0913	1,802.49	89.645
1,866.21	104.859	1,866.21	103.837	1,866.21	105.027	1,866.21	101.849	1,866.21	104.375	1,866.21	98.7026	1,866.21	102.871	1,866.21	94.133	1,866.21	100.444	1,866.21	88.4619	1,866.21	97.0181	1,866.21	86.3775	1,866.21	92.6323	1,866.21	88.1813	1,866.21	88.0668	1,866.21	89.589	1,866.21	85.7096	1,866.21	90.2776	1,866.21	85.8658	1,866.21	90.1845	1,866.21	86.4476	1,866.21	89.2475	1,866.21	86.219	1,866.21	87.7669	1,866.21	84.6239	1,866.21	86.4042	1,866.21	82.7793	1,866.21	84.9477	1,866.21	84.1365	1,866.21	81.7113	1,866.21	87.233	1,866.21	77.6745	1,866.21	89.4938	1,866.21	84.1527	1,866.21	90.0925	1,866.21	88.5516
1,932.13	104.356	1,932.13	103.472	1,932.13	104.47	1,932.13	101.817	1,932.13	103.81	1,932.13	99.3746	1,932.13	102.413	1,932.13	96.2742	1,932.13	100.386	1,932.13	93.4592	1,932.13	97.9008	1,932.13	92.3154	1,932.13	95.1568	1,932.13	91.9262	1,932.13	92.4064	1,932.13	91.2912	1,932.13	90.1427	1,932.13	90.8219	1,932.13	88.9118	1,932.13	90.7959	1,932.13	88.3864	1,932.13	90.7175	1,932.13	87.6663	1,932.13	90.1474	1,932.13	86.3279	1,932.13	88.8557	1,932.13	85.108	1,932.13	86.4654	1,932.13	85.4529	1,932.13	82.795	1,932.13	87.0116	1,932.13	83.6576	1,932.13	88.9921	1,932.13	88.1008	1,932.13	90.4335	1,932.13	90.3372
2,000.24	105.308	2,000.24	104.425	2,000.24	105.083	2,000.24	102.564	2,000.24	103.826	2,000.24	100.051	2,000.24	101.88	2,000.24	97.435	2,000.24	99.8973	2,000.24	95.4772	2,000.24	98.3298	2,000.24	94.3317	2,000.24	96.7719	2,000.24	93.2267	2,000.24	94.6479	2,000.24	91.8745	2,000.24	92.482	2,000.24	90.8353	2,000.24	91.8148	2,000.24	90.5461	2,000.24	91.5651	2,000.24	90.5709	2,000.24	89.8039	2,000.24	90.2565	2,000.24	86.856	2,000.24	89.23	2,000.24	86.2633	2,000.24	87.218	2,000.24	87.2671	2,000.24	84.2538	2,000.24	87.7671	2,000.24	83.9961	2,000.24	88.4266	2,000.24	87.2987	2,000.24	89.3224	2,000.24	89.2487
2,070.56	105.949	2,070.56	105.208	2,070.56	105.537	2,070.56	103.327	2,070.56	104.114	2,070.56	100.605	2,070.56	102.011	2,070.56	97.7849	2,070.56	99.9726	2,070.56	95.8614	2,070.56	98.795	2,070.56	95.085	2,070.56	98.0447	2,070.56	94.7182	2,070.56	96.7814	2,070.56	94.1812	2,070.56	94.9066	2,070.56	93.4519	2,070.56	93.5509	2,070.56	92.7404	2,070.56	93.2418	2,070.56	92.1331	2,070.56	92.2504	2,070.56	91.4792	2,070.56	89.3611	2,070.56	90.3986	2,070.56	86.1171	2,070.56	88.2557	2,070.56	86.7096	2,070.56	84.6401	2,070.56	87.6709	2,070.56	84.4453	2,070.56	88.4011	2,070.56	88.4231	2,070.56	89.825	2,070.56	90.2653
2,143.8	105.408	2,143.8	104.944	2,143.8	105.132	2,143.8	103.688	2,143.8	104.11	2,143.8	101.66	2,143.8	102.362	2,143.8	99.0931	2,143.8	100.295	2,143.8	96.5328	2,143.8	98.8176	2,143.8	94.6581	2,143.8	98.1205	2,143.8	93.6736	2,143.8	97.2679	2,143.8	93.1136	2,143.8	95.6084	2,143.8	92.5042	2,143.8	93.6418	2,143.8	91.8625	2,143.8	92.9822	2,143.8	91.5267	2,143.8	92.819	2,143.8	91.3962	2,143.8	91.1087	2,143.8	90.7011	2,143.8	87.9889	2,143.8	88.4675	2,143.8	87.276	2,143.8	83.7608	2,143.8	88.1539	2,143.8	84.2959	2,143.8	88.8834	2,143.8	89.3568	2,143.8	90.47	2,143.8	91.1668
2,219.24	105.044	2,219.24	104.92	2,219.24	104.597	2,219.24	104.053	2,219.24	103.785	2,219.24	102.274	2,219.24	102.765	2,219.24	99.6011	2,219.24	101.542	2,219.24	96.9313	2,219.24	100.127	2,219.24	95.6711	2,219.24	98.7416	2,219.24	95.3473	2,219.24	97.5978	2,219.24	95.1101	2,219.24	96.3915	2,219.24	94.5521	2,219.24	94.5254	2,219.24	93.2706	2,219.24	92.2366	2,219.24	91.461	2,219.24	91.2355	2,219.24	90.6042	2,219.24	90.5301	2,219.24	91.1305	2,219.24	88.2434	2,219.24	90.8363	2,219.24	87.627	2,219.24	87.6638	2,219.24	88.7969	2,219.24	81.5477	2,219.24	89.489	2,219.24	87.7279	2,219.24	90.915	2,219.24	91.0231
2,297.61	106.349	2,297.61	105.845	2,297.61	105.509	2,297.61	103.994	2,297.61	103.749	2,297.61	101.202	2,297.61	102.151	2,297.61	98.7568	2,297.61	101.5	2,297.61	98.0677	2,297.61	101.019	2,297.61	97.8955	2,297.61	99.9393	2,297.61	96.9135	2,297.61	98.4118	2,297.61	95.345	2,297.61	97.1703	2,297.61	93.9888	2,297.61	96.2542	2,297.61	93.0514	2,297.61	94.732	2,297.61	92.1527	2,297.61	92.6882	2,297.61	91.3847	2,297.61	91.2139	2,297.61	91.4053	2,297.61	88.4778	2,297.61	91.3859	2,297.61	85.2051	2,297.61	89.5423	2,297.61	87.2218	2,297.61	85.4241	2,297.61	88.8498	2,297.61	87.1328	2,297.61	90.6053	2,297.61	90.5307
2,378.17	106.695	2,378.17	106.107	2,378.17	106.071	2,378.17	104.311	2,378.17	104.535	2,378.17	101.815	2,378.17	102.782	2,378.17	99.6683	2,378.17	101.705	2,378.17	98.4585	2,378.17	101.073	2,378.17	97.7328	2,378.17	99.9408	2,378.17	96.9828	2,378.17	98.0378	2,378.17	96.1119	2,378.17	96.1912	2,378.17	95.2549	2,378.17	95.5432	2,378.17	94.5097	2,378.17	95.0059	2,378.17	93.6472	2,378.17	93.6696	2,378.17	92.5689	2,378.17	92.5672	2,378.17	91.7178	2,378.17	91.0568	2,378.17	91.0727	2,378.17	87.8839	2,378.17	89.5956	2,378.17	87.1104	2,378.17	87.1964	2,378.17	88.9145	2,378.17	88.049	2,378.17	90.543	2,378.17	90.4505
2,462.4	106.269	2,462.4	105.766	2,462.4	105.808	2,462.4	104.337	2,462.4	104.481	2,462.4	102.305	2,462.4	102.854	2,462.4	100.398	2,462.4	101.897	2,462.4	99.1051	2,462.4	101.522	2,462.4	98.2305	2,462.4	100.76	2,462.4	97.3861	2,462.4	99.0749	2,462.4	96.328	2,462.4	96.6895	2,462.4	95.1405	2,462.4	94.8054	2,462.4	94.1011	2,462.4	93.6373	2,462.4	93.2572	2,462.4	91.9993	2,462.4	92.5358	2,462.4	91.1903	2,462.4	91.98	2,462.4	90.8902	2,462.4	91.2666	2,462.4	89.2779	2,462.4	89.5849	2,462.4	88.7168	2,462.4	87.2505	2,462.4	88.8826	2,462.4	88.0372	2,462.4	89.4958	2,462.4	89.7991
2,548.83	106.187	2,548.83	105.686	2,548.83	105.787	2,548.83	104.31	2,548.83	104.611	2,548.83	102.271	2,548.83	103.172	2,548.83	100.385	2,548.83	102.152	2,548.83	99.5455	2,548.83	101.529	2,548.83	99.3262	2,548.83	100.672	2,548.83	98.8796	2,548.83	99.2097	2,548.83	97.789	2,548.83	97.3844	2,548.83	96.0991	2,548.83	95.9617	2,548.83	94.2943	2,548.83	94.8445	2,548.83	92.9239	2,548.83	92.8281	2,548.83	92.1213	2,548.83	89.9506	2,548.83	91.6478	2,548.83	87.6411	2,548.83	91.0012	2,548.83	86.0076	2,548.83	89.5666	2,548.83	85.7103	2,548.83	88.0418	2,548.83	85.8253	2,548.83	89.1543	2,548.83	88.5564	2,548.83	90.2454
2,638.92	106.569	2,638.92	105.835	2,638.92	105.973	2,638.92	103.984	2,638.92	104.351	2,638.92	102.006	2,638.92	102.779	2,638.92	101.266	2,638.92	102.244	2,638.92	100.978	2,638.92	101.942	2,638.92	99.8971	2,638.92	100.779	2,638.92	97.9795	2,638.92	98.3939	2,638.92	95.6897	2,638.92	95.4301	2,638.92	93.6005	2,638.92	94.2755	2,638.92	92.1667	2,638.92	94.373	2,638.92	91.3978	2,638.92	93.5493	2,638.92	91.3819	2,638.92	92.1828	2,638.92	91.7662	2,638.92	90.0408	2,638.92	91.4249	2,638.92	86.841	2,638.92	89.6001	2,638.92	87.1845	2,638.92	87.5623	2,638.92	88.8002	2,638.92	89.4652	2,638.92	90.6937	2,638.92	91.3401
2,731.93	106.412	2,731.93	105.42	2,731.93	106.13	2,731.93	103.729	2,731.93	104.575	2,731.93	102.491	2,731.93	102.581	2,731.93	101.983	2,731.93	101.749	2,731.93	101.185	2,731.93	101.782	2,731.93	99.6369	2,731.93	101.12	2,731.93	97.7397	2,731.93	99.0426	2,731.93	96.1893	2,731.93	95.5857	2,731.93	95.154	2,731.93	93.1542	2,731.93	94.1428	2,731.93	93.1967	2,731.93	92.8186	2,731.93	92.2168	2,731.93	91.7223	2,731.93	91.1291	2,731.93	91.4849	2,731.93	90.0933	2,731.93	91.0742	2,731.93	86.1992	2,731.93	89.1264	2,731.93	85.6389	2,731.93	86.905	2,731.93	87.1359	2,731.93	89.3796	2,731.93	89.489	2,731.93	91.0841
2,828.61	106.479	2,828.61	105.416	2,828.61	106.407	2,828.61	103.991	2,828.61	104.988	2,828.61	103.036	2,828.61	102.691	2,828.61	102.339	2,828.61	101.239	2,828.61	101.309	2,828.61	101.404	2,828.61	99.8638	2,828.61	101.294	2,828.61	98.2335	2,828.61	99.6746	2,828.61	96.6288	2,828.61	95.775	2,828.61	95.1595	2,828.61	90.4753	2,828.61	93.5402	2,828.61	91.8747	2,828.61	91.3293	2,828.61	92.4159	2,828.61	89.1727	2,828.61	91.1183	2,828.61	89.2286	2,828.61	90.5851	2,828.61	90.3578	2,828.61	87.8436	2,828.61	89.6688	2,828.61	84.9145	2,828.61	86.535	2,828.61	86.6026	2,828.61	87.7947	2,828.61	89.7801	2,828.61	90.7626
2,928.22	106.284	2,928.22	105.421	2,928.22	106.325	2,928.22	104.321	2,928.22	105.244	2,928.22	103.455	2,928.22	103.206	2,928.22	102.642	2,928.22	101.318	2,928.22	101.511	2,928.22	100.954	2,928.22	99.9307	2,928.22	101.145	2,928.22	97.7272	2,928.22	100.386	2,928.22	94.7486	2,928.22	97.8412	2,928.22	91.5319	2,928.22	92.639	2,928.22	89.4996	2,928.22	88.8754	2,928.22	88.9646	2,928.22	90.7735	2,928.22	88.3322	2,928.22	89.909	2,928.22	87.3624	2,928.22	88.2412	2,928.22	87.9022	2,928.22	86.3325	2,928.22	88.1547	2,928.22	84.0183	2,928.22	86.834	2,928.22	83.7372	2,928.22	87.8922	2,928.22	87.6001	2,928.22	89.611
3,031.49	105.934	3,031.49	105.086	3,031.49	106.064	3,031.49	104.18	3,031.49	105.169	3,031.49	103.552	3,031.49	103.442	3,031.49	102.738	3,031.49	101.571	3,031.49	101.124	3,031.49	100.528	3,031.49	98.6065	3,031.49	100.252	3,031.49	95.5317	3,031.49	99.6736	3,031.49	92.5527	3,031.49	97.8866	3,031.49	90.5531	3,031.49	94.0145	3,031.49	89.676	3,031.49	87.7648	3,031.49	89.5032	3,031.49	87.4769	3,031.49	88.9338	3,031.49	88.731	3,031.49	87.2411	3,031.49	86.8154	3,031.49	85.9824	3,031.49	83.1757	3,031.49	85.8854	3,031.49	82.0019	3,031.49	85.0063	3,031.49	84.9304	3,031.49	86.7025	3,031.49	88.9925	3,031.49	89.6531
3,138.43	106.403	3,138.43	105.485	3,138.43	106.375	3,138.43	104.376	3,138.43	105.232	3,138.43	103.565	3,138.43	103.334	3,138.43	102.43	3,138.43	101.548	3,138.43	100.187	3,138.43	100.617	3,138.43	96.7782	3,138.43	99.9925	3,138.43	93.5825	3,138.43	98.9154	3,138.43	92.3209	3,138.43	97.239	3,138.43	91.776	3,138.43	95.2205	3,138.43	90.5841	3,138.43	92.8759	3,138.43	88.7167	3,138.43	89.7388	3,138.43	86.8924	3,138.43	88.3547	3,138.43	86.0025	3,138.43	87.9436	3,138.43	85.9006	3,138.43	84.1864	3,138.43	84.6205	3,138.43	82.6968	3,138.43	81.1336	3,138.43	85.8519	3,138.43	85.4566	3,138.43	88.9333	3,138.43	89.2037
3,249.02	106.427	3,249.02	105.508	3,249.02	106.696	3,249.02	104.648	3,249.02	105.834	3,249.02	103.678	3,249.02	103.842	3,249.02	101.785	3,249.02	101.359	3,249.02	98.6682	3,249.02	99.954	3,249.02	95.332	3,249.02	99.6884	3,249.02	93.4204	3,249.02	99.0603	3,249.02	92.0483	3,249.02	97.2568	3,249.02	90.3363	3,249.02	94.565	3,249.02	89.1761	3,249.02	93.4028	3,249.02	89.2295	3,249.02	92.6593	3,249.02	89.2648	3,249.02	90.9821	3,249.02	88.0071	3,249.02	89.9026	3,249.02	86.1707	3,249.02	86.4931	3,249.02	85.328	3,249.02	83.2055	3,249.02	82.9238	3,249.02	85.6651	3,249.02	81.1012	3,249.02	88.0516	3,249.02	86.8925
3,363.28	106.095	3,363.28	105.504	3,363.28	106.531	3,363.28	104.836	3,363.28	106.242	3,363.28	103.485	3,363.28	104.826	3,363.28	101.063	3,363.28	102.342	3,363.28	98.1339	3,363.28	99.7903	3,363.28	96.0765	3,363.28	98.7058	3,363.28	94.9589	3,363.28	98.4284	3,363.28	93.9083	3,363.28	97.1	3,363.28	92.7063	3,363.28	93.9284	3,363.28	91.4752	3,363.28	91.7449	3,363.28	90.7523	3,363.28	92.0676	3,363.28	90.4009	3,363.28	90.6353	3,363.28	89.3611	3,363.28	88.2785	3,363.28	87.5991	3,363.28	85.0922	3,363.28	86.1143	3,363.28	81.9668	3,363.28	84.3235	3,363.28	83.6117	3,363.28	83.8209	3,363.28	87.169	3,363.28	87.1874
3,481.93	106.028	3,481.93	105.348	3,481.93	106.29	3,481.93	104.439	3,481.93	105.831	3,481.93	103.039	3,481.93	104.594	3,481.93	100.782	3,481.93	102.741	3,481.93	98.1658	3,481.93	100.589	3,481.93	96.6612	3,481.93	98.5413	3,481.93	96.1744	3,481.93	96.6426	3,481.93	95.7345	3,481.93	94.3548	3,481.93	94.6875	3,481.93	91.5892	3,481.93	92.7078	3,481.93	90.7344	3,481.93	90.4676	3,481.93	91.606	3,481.93	89.6044	3,481.93	91.109	3,481.93	89.5999	3,481.93	88.2773	3,481.93	88.6866	3,481.93	83.4185	3,481.93	86.2363	3,481.93	81.5012	3,481.93	82.6526	3,481.93	84.1249	3,481.93	83.1529	3,481.93	87.0585	3,481.93	86.76
3,604.98	106.016	3,604.98	105.519	3,604.98	106.133	3,604.98	104.545	3,604.98	105.633	3,604.98	102.751	3,604.98	104.332	3,604.98	100.437	3,604.98	102.377	3,604.98	99.0567	3,604.98	100.422	3,604.98	98.6112	3,604.98	98.9126	3,604.98	97.3696	3,604.98	97.1111	3,604.98	95.1862	3,604.98	93.3936	3,604.98	93.06	3,604.98	85.2698	3,604.98	91.5605	3,604.98	86.1291	3,604.98	90.2208	3,604.98	89.8046	3,604.98	89.0424	3,604.98	90.302	3,604.98	88.9268	3,604.98	88.4564	3,604.98	88.9858	3,604.98	83.0727	3,604.98	87.5945	3,604.98	80.6607	3,604.98	83.4932	3,604.98	85.838	3,604.98	81.5586	3,604.98	88.5857	3,604.98	87.1487
3,732.42	105.55	3,732.42	105.327	3,732.42	105.553	3,732.42	104.464	3,732.42	105.199	3,732.42	102.682	3,732.42	104.116	3,732.42	100.794	3,732.42	102.294	3,732.42	99.8121	3,732.42	100.22	3,732.42	98.7703	3,732.42	98.4692	3,732.42	96.786	3,732.42	96.8029	3,732.42	94.1944	3,732.42	93.9484	3,732.42	92.0362	3,732.42	87.5903	3,732.42	90.6894	3,732.42	60.6695	3,732.42	89.6322	3,732.42	84.6157	3,732.42	88.5423	3,732.42	87.5653	3,732.42	87.6798	3,732.42	87.4357	3,732.42	87.6436	3,732.42	84.1297	3,732.42	87.5648	3,732.42	81.2255	3,732.42	85.0919	3,732.42	84.3121	3,732.42	81.3029	3,732.42	86.8894	3,732.42	85.7676
3,863.53	105.363	3,863.53	105.081	3,863.53	105.171	3,863.53	104.059	3,863.53	104.634	3,863.53	102.495	3,863.53	103.584	3,863.53	101.215	3,863.53	101.927	3,863.53	100.151	3,863.53	99.9364	3,863.53	98.1649	3,863.53	98.0839	3,863.53	95.2539	3,863.53	96.3527	3,863.53	92.972	3,863.53	93.8901	3,863.53	91.9191	3,863.53	89.2479	3,863.53	90.4995	3,863.53	79.7547	3,863.53	88.3582	3,863.53	75.9107	3,863.53	87.3059	3,863.53	82.6187	3,863.53	87.4994	3,863.53	84.2865	3,863.53	87.061	3,863.53	81.6875	3,863.53	85.6684	3,863.53	79.9615	3,863.53	83.4311	3,863.53	83.7795	3,863.53	81.2626	3,863.53	86.4441	3,863.53	84.9705
3,999.76	105.777	3,999.76	105.38	3,999.76	105.319	3,999.76	104.056	3,999.76	104.432	3,999.76	102.496	3,999.76	103.348	3,999.76	101.385	3,999.76	101.975	3,999.76	100.046	3,999.76	100.237	3,999.76	97.7522	3,999.76	98.278	3,999.76	94.9993	3,999.76	96.1637	3,999.76	92.6966	3,999.76	93.313	3,999.76	90.8301	3,999.76	88.0135	3,999.76	88.9932	3,999.76	74.0448	3,999.76	87.0614	3,999.76	79.7738	3,999.76	85.212	3,999.76	81.2243	3,999.76	85.3211	3,999.76	80.359	3,999.76	86.075	3,999.76	79.5058	3,999.76	85.0236	3,999.76	80.1374	3,999.76	81.9498	3,999.76	84.0632	3,999.76	80.1928	3,999.76	86.0792	3,999.76	84.1962
4,141.11	105.393	4,141.11	105.015	4,141.11	105.063	4,141.11	104.055	4,141.11	104.14	4,141.11	102.824	4,141.11	102.9	4,141.11	101.379	4,141.11	101.588	4,141.11	99.4106	4,141.11	100.282	4,141.11	96.734	4,141.11	98.8795	4,141.11	93.6212	4,141.11	97.0544	4,141.11	90.9481	4,141.11	94.274	4,141.11	89.6169	4,141.11	89.4973	4,141.11	89.317	4,141.11	80.4369	4,141.11	88.4221	4,141.11	81.122	4,141.11	85.6482	4,141.11	82.8517	4,141.11	82.8435	4,141.11	79.1424	4,141.11	84.6073	4,141.11	73.4763	4,141.11	85.2693	4,141.11	80.6048	4,141.11	81.5349	4,141.11	84.4124	4,141.11	78.7904	4,141.11	84.885	4,141.11	83.123
4,286.87	106.234	4,286.87	105.585	4,286.87	105.678	4,286.87	104.249	4,286.87	104.16	4,286.87	102.914	4,286.87	102.424	4,286.87	101.377	4,286.87	101.022	4,286.87	98.9287	4,286.87	99.9272	4,286.87	95.826	4,286.87	98.7375	4,286.87	93.4066	4,286.87	96.7839	4,286.87	91.6234	4,286.87	93.7889	4,286.87	89.6475	4,286.87	90.6692	4,286.87	88.0125	4,286.87	88.1037	4,286.87	87.5029	4,286.87	83.2466	4,286.87	86.9552	4,286.87	76.9671	4,286.87	84.6324	4,286.87	82.9737	4,286.87	81.9309	4,286.87	78.2661	4,286.87	83.8525	4,286.87	76.1386	4,286.87	82.4288	4,286.87	81.7112	4,286.87	76.1201	4,286.87	83.455	4,286.87	81.8935
4,438.48	106.335	4,438.48	105.906	4,438.48	105.878	4,438.48	104.791	4,438.48	104.499	4,438.48	103.128	4,438.48	102.369	4,438.48	100.862	4,438.48	100.37	4,438.48	98.1828	4,438.48	99.3321	4,438.48	95.6887	4,438.48	98.4456	4,438.48	93.2096	4,438.48	96.6108	4,438.48	90.3557	4,438.48	93.6733	4,438.48	88.4904	4,438.48	90.1633	4,438.48	88.0482	4,438.48	88.6511	4,438.48	87.2972	4,438.48	85.482	4,438.48	85.881	4,438.48	67.0257	4,438.48	84.588	4,438.48	84.905	4,438.48	83.1709	4,438.48	82.7456	4,438.48	81.9377	4,438.48	77.4416	4,438.48	80.9601	4,438.48	84.0322	4,438.48	78.9824	4,438.48	86.1243	4,438.48	83.4748
4,594.48	106.543	4,594.48	106.165	4,594.48	106.141	4,594.48	105.089	4,594.48	104.725	4,594.48	103.185	4,594.48	102.277	4,594.48	100.545	4,594.48	99.5095	4,594.48	97.8167	4,594.48	97.8738	4,594.48	95.4191	4,594.48	97.4338	4,594.48	92.9836	4,594.48	96.8783	4,594.48	90.6233	4,594.48	95.2475	4,594.48	88.9585	4,594.48	91.5835	4,594.48	88.185	4,594.48	87.1484	4,594.48	88.096	4,594.48	84.944	4,594.48	87.6284	4,594.48	74.4448	4,594.48	85.9274	4,594.48	84.645	4,594.48	83.3334	4,594.48	83.9533	4,594.48	82.3052	4,594.48	80.1827	4,594.48	80.8802	4,594.48	84.6602	4,594.48	78.2441	4,594.48	86.4785	4,594.48	84.3096
4,757.08	107.116	4,757.08	106.64	4,757.08	106.469	4,757.08	105.083	4,757.08	104.735	4,757.08	102.747	4,757.08	102.005	4,757.08	100.197	4,757.08	98.925	4,757.08	97.7959	4,757.08	97.0274	4,757.08	95.6209	4,757.08	96.5282	4,757.08	93.8342	4,757.08	96.0064	4,757.08	91.9707	4,757.08	94.288	4,757.08	89.8239	4,757.08	89.4668	4,757.08	87.9958	4,757.08	85.4111	4,757.08	86.67	4,757.08	85.5163	4,757.08	85.9108	4,757.08	74.1206	4,757.08	85.6314	4,757.08	83.1944	4,757.08	84.7841	4,757.08	81.1172	4,757.08	83.0665	4,757.08	78.2501	4,757.08	81.0538	4,757.08	83.8754	4,757.08	77.4879	4,757.08	85.9951	4,757.08	83.0141
4,924.8	107.134	4,924.8	106.495	4,924.8	106.866	4,924.8	105.054	4,924.8	105.41	4,924.8	102.798	4,924.8	102.555	4,924.8	99.9109	4,924.8	98.72	4,924.8	97.4689	4,924.8	95.3835	4,924.8	96.0276	4,924.8	94.4962	4,924.8	93.9787	4,924.8	94.8253	4,924.8	90.856	4,924.8	93.8437	4,924.8	88.6781	4,924.8	88.5574	4,924.8	87.4465	4,924.8	78.6551	4,924.8	85.9171	4,924.8	85.5572	4,924.8	84.2004	4,924.8	80.1678	4,924.8	83.3003	4,924.8	77.2118	4,924.8	83.2226	4,924.8	78.2795	4,924.8	82.4327	4,924.8	71.9068	4,924.8	80.047	4,924.8	82.403	4,924.8	78.9805	4,924.8	85.8362	4,924.8	84.0174
5,098.39	107.293	5,098.39	106.339	5,098.39	107.036	5,098.39	104.47	5,098.39	105.465	5,098.39	102.026	5,098.39	102.749	5,098.39	99.4583	5,098.39	99.2392	5,098.39	97.0723	5,098.39	96.0233	5,098.39	94.6045	5,098.39	94.9412	5,098.39	92.2413	5,098.39	95.0838	5,098.39	90.5245	5,098.39	93.8499	5,098.39	88.5937	5,098.39	88.4679	5,098.39	85.7831	5,098.39	72.8321	5,098.39	83.5928	5,098.39	84.6587	5,098.39	83.3632	5,098.39	82.8371	5,098.39	82.8296	5,098.39	80.6386	5,098.39	81.1224	5,098.39	80.5615	5,098.39	80.9667	5,098.39	76.9135	5,098.39	79.3936	5,098.39	81.7677	5,098.39	74.9261	5,098.39	85.373	5,098.39	83.949
5,277.83	106.756	5,277.83	105.768	5,277.83	106.857	5,277.83	104.185	5,277.83	105.648	5,277.83	101.913	5,277.83	102.933	5,277.83	98.9026	5,277.83	99.0668	5,277.83	96.1027	5,277.83	94.8828	5,277.83	93.732	5,277.83	92.8293	5,277.83	90.2253	5,277.83	93.2209	5,277.83	86.7592	5,277.83	92.9046	5,277.83	86.7277	5,277.83	90.6187	5,277.83	86.5646	5,277.83	84.242	5,277.83	85.274	5,277.83	76.2491	5,277.83	83.0801	5,277.83	78.5723	5,277.83	81.097	5,277.83	78.0835	5,277.83	80.8738	5,277.83	77.1807	5,277.83	80.7163	5,277.83	76.6292	5,277.83	78.5115	5,277.83	82.4562	5,277.83	69.1712	5,277.83	85.3456	5,277.83	81.9436
5,463.87	106.309	5,463.87	105.342	5,463.87	106.547	5,463.87	103.965	5,463.87	105.448	5,463.87	101.52	5,463.87	102.9	5,463.87	98.055	5,463.87	99.068	5,463.87	95.0483	5,463.87	94.5299	5,463.87	91.8938	5,463.87	91.528	5,463.87	90.1049	5,463.87	91.6448	5,463.87	90.7608	5,463.87	92.1553	5,463.87	89.8258	5,463.87	90.0854	5,463.87	87.4807	5,463.87	82.1974	5,463.87	85.9705	5,463.87	75.9244	5,463.87	85.1404	5,463.87	80.2129	5,463.87	83.9318	5,463.87	79.9081	5,463.87	81.9766	5,463.87	75.7073	5,463.87	80.3147	5,463.87	71.9432	5,463.87	79.0986	5,463.87	83.1407	5,463.87	69.2494	5,463.87	84.9099	5,463.87	79.9466
5,656.49	105.63	5,656.49	105.023	5,656.49	105.593	5,656.49	103.491	5,656.49	104.559	5,656.49	100.531	5,656.49	102.354	5,656.49	97.2826	5,656.49	99.0721	5,656.49	95.2372	5,656.49	94.7339	5,656.49	92.8328	5,656.49	91.3962	5,656.49	90.5957	5,656.49	92.2004	5,656.49	88.9953	5,656.49	93.0905	5,656.49	87.729	5,656.49	90.4481	5,656.49	87.0637	5,656.49	83.0823	5,656.49	85.8667	5,656.49	72.4445	5,656.49	84.3582	5,656.49	72.8237	5,656.49	83.3403	5,656.49	80.1954	5,656.49	82.0093	5,656.49	80.9351	5,656.49	80.4799	5,656.49	74.2603	5,656.49	78.6283	5,656.49	83.0703	5,656.49	70.1281	5,656.49	83.5216	5,656.49	76.8574
5,856.45	105.369	5,856.45	104.66	5,856.45	105.049	5,856.45	102.386	5,856.45	103.916	5,856.45	99.0458	5,856.45	101.819	5,856.45	97.4307	5,856.45	98.4268	5,856.45	95.5089	5,856.45	93.5508	5,856.45	92.0314	5,856.45	89.408	5,856.45	90.2649	5,856.45	90.7062	5,856.45	88.2169	5,856.45	92.5466	5,856.45	85.1965	5,856.45	91.3072	5,856.45	84.0493	5,856.45	86.4095	5,856.45	81.8263	5,856.45	76.0898	5,856.45	79.2267	5,856.45	71.3035	5,856.45	80.8351	5,856.45	80.3756	5,856.45	81.2072	5,856.45	81.1298	5,856.45	78.1788	5,856.45	74.8881	5,856.45	76.3273	5,856.45	82.743	5,856.45	71.6484	5,856.45	83.0134	5,856.45	74.6965
6,062.99	105.639	6,062.99	104.688	6,062.99	105.201	6,062.99	102.325	6,062.99	103.699	6,062.99	99.951	6,062.99	101.109	6,062.99	98.2753	6,062.99	97.3247	6,062.99	95.9033	6,062.99	92.7098	6,062.99	93.0501	6,062.99	87.7347	6,062.99	88.2516	6,062.99	86.7202	6,062.99	82.6646	6,062.99	90.7953	6,062.99	84.8766	6,062.99	91.6621	6,062.99	86.3417	6,062.99	89.075	6,062.99	84.536	6,062.99	81.2836	6,062.99	81.1488	6,062.99	73.1123	6,062.99	79.6458	6,062.99	79.0761	6,062.99	82.4462	6,062.99	78.6017	6,062.99	82.9369	6,062.99	67.0411	6,062.99	80.2929	6,062.99	79.9979	6,062.99	76.3845	6,062.99	81.8541	6,062.99	74.0417
6,276.86	106.312	6,276.86	105.163	6,276.86	105.609	6,276.86	102.75	6,276.86	103.517	6,276.86	100.747	6,276.86	100.589	6,276.86	98.7379	6,276.86	96.9531	6,276.86	95.4274	6,276.86	93.5794	6,276.86	92.5353	6,276.86	89.7647	6,276.86	90.6491	6,276.86	83.9663	6,276.86	89.3131	6,276.86	86.2931	6,276.86	88.1189	6,276.86	89.1802	6,276.86	86.5195	6,276.86	87.6274	6,276.86	85.616	6,276.86	81.2968	6,276.86	85.1034	6,276.86	72.4603	6,276.86	83.8417	6,276.86	72.2383	6,276.86	83.5243	6,276.86	75.3439	6,276.86	84.0257	6,276.86	69.7419	6,276.86	82.7142	6,276.86	77.1799	6,276.86	77.309	6,276.86	80.4192	6,276.86	75.3828
6,498.05	106.257	6,498.05	105.302	6,498.05	105.745	6,498.05	103.479	6,498.05	103.686	6,498.05	101.21	6,498.05	100.346	6,498.05	98.0995	6,498.05	96.6116	6,498.05	95.4589	6,498.05	93.4177	6,498.05	94.1258	6,498.05	90.111	6,498.05	92.6209	6,498.05	84.49	6,498.05	91.6524	6,498.05	81.3646	6,498.05	89.6772	6,498.05	86.5828	6,498.05	87.3494	6,498.05	87.6265	6,498.05	86.4649	6,498.05	83.8411	6,498.05	85.0997	6,498.05	76.2968	6,498.05	82.387	6,498.05	65.4667	6,498.05	83.2619	6,498.05	71.5473	6,498.05	85.4872	6,498.05	71.7566	6,498.05	83.4562	6,498.05	75.8622	6,498.05	78.0765	6,498.05	79.635	6,498.05	75.3292
6,727.29	106.662	6,727.29	105.93	6,727.29	106.039	6,727.29	103.902	6,727.29	104.05	6,727.29	100.941	6,727.29	100.89	6,727.29	98.1453	6,727.29	97.6077	6,727.29	96.0928	6,727.29	94.7836	6,727.29	94.5369	6,727.29	91.2688	6,727.29	93.4233	6,727.29	86.8711	6,727.29	91.2299	6,727.29	81.7463	6,727.29	87.3818	6,727.29	78.3104	6,727.29	84.6317	6,727.29	79.2262	6,727.29	84.2652	6,727.29	79.7986	6,727.29	84.2048	6,727.29	75.1209	6,727.29	83.4182	6,727.29	67.8787	6,727.29	83.1196	6,727.29	72.704	6,727.29	83.4489	6,727.29	69.8364	6,727.29	80.8693	6,727.29	79.2399	6,727.29	74.8866	6,727.29	79.5645	6,727.29	75.2557
6,964.6	107.273	6,964.6	106.193	6,964.6	106.491	6,964.6	103.609	6,964.6	104.087	6,964.6	101.081	6,964.6	100.821	6,964.6	98.9528	6,964.6	97.8034	6,964.6	96.5175	6,964.6	95.2766	6,964.6	94.3897	6,964.6	93.2019	6,964.6	91.2273	6,964.6	90.5957	6,964.6	87.616	6,964.6	86.0773	6,964.6	86.6053	6,964.6	82.5209	6,964.6	84.7491	6,964.6	82.0412	6,964.6	82.0611	6,964.6	80.2512	6,964.6	81.3867	6,964.6	74.8633	6,964.6	81.8638	6,964.6	66.3203	6,964.6	82.3423	6,964.6	75.6666	6,964.6	83.511	6,964.6	67.9715	6,964.6	81.8194	6,964.6	77.3194	6,964.6	74.1702	6,964.6	80.3409	6,964.6	77.3315
7,209.96	106.924	7,209.96	105.352	7,209.96	106.559	7,209.96	103.155	7,209.96	104.362	7,209.96	101.583	7,209.96	101.145	7,209.96	98.8414	7,209.96	98.0704	7,209.96	96.1422	7,209.96	95.8399	7,209.96	94.0303	7,209.96	94.0545	7,209.96	90.2532	7,209.96	91.8246	7,209.96	88.8928	7,209.96	87.9242	7,209.96	88.2281	7,209.96	77.1324	7,209.96	85.9115	7,209.96	78.8145	7,209.96	84.2713	7,209.96	82.8763	7,209.96	83.8784	7,209.96	79.4254	7,209.96	83.1863	7,209.96	66.8289	7,209.96	82.5844	7,209.96	73.1019	7,209.96	82.8445	7,209.96	70.4254	7,209.96	81.0523	7,209.96	74.9643	7,209.96	74.2855	7,209.96	78.2728	7,209.96	75.6153
7,464.11	106.005	7,464.11	104.399	7,464.11	106.096	7,464.11	102.712	7,464.11	104.387	7,464.11	100.733	7,464.11	101.556	7,464.11	98.0832	7,464.11	98.6962	7,464.11	96.6688	7,464.11	96.1761	7,464.11	94.123	7,464.11	93.4593	7,464.11	91.5886	7,464.11	91.3806	7,464.11	90.216	7,464.11	89.2871	7,464.11	86.7899	7,464.11	82.8614	7,464.11	83.588	7,464.11	82.5001	7,464.11	82.7762	7,464.11	83.8882	7,464.11	81.383	7,464.11	78.0785	7,464.11	81.1213	7,464.11	74.1696	7,464.11	82.2387	7,464.11	75.0448	7,464.11	82.4896	7,464.11	71.643	7,464.11	79.4805	7,464.11	77.4744	7,464.11	69.2842	7,464.11	77.8982	7,464.11	72.7772
7,727.78	105.255	7,727.78	103.8	7,727.78	105.491	7,727.78	102.397	7,727.78	103.848	7,727.78	100.387	7,727.78	101.227	7,727.78	98.1165	7,727.78	98.6713	7,727.78	97.0056	7,727.78	96.1219	7,727.78	94.6037	7,727.78	92.5958	7,727.78	90.9577	7,727.78	88.6363	7,727.78	87.4095	7,727.78	88.0733	7,727.78	84.6888	7,727.78	86.0727	7,727.78	83.3045	7,727.78	85.9553	7,727.78	80.9511	7,727.78	85.1431	7,727.78	79.1382	7,727.78	75.5547	7,727.78	80.046	7,727.78	71.6743	7,727.78	80.5472	7,727.78	76.2358	7,727.78	80.705	7,727.78	62.6916	7,727.78	79.5127	7,727.78	78.3082	7,727.78	72.5638	7,727.78	78.6749	7,727.78	73.2622
8,000.24	104.899	8,000.24	104.162	8,000.24	104.753	8,000.24	102.933	8,000.24	103.149	8,000.24	100.694	8,000.24	100.789	8,000.24	99.0878	8,000.24	98.8424	8,000.24	97.6295	8,000.24	96.6787	8,000.24	93.6784	8,000.24	93.0042	8,000.24	89.8078	8,000.24	88.4703	8,000.24	86.9194	8,000.24	86.4942	8,000.24	84.4971	8,000.24	85.1498	8,000.24	84.1202	8,000.24	87.0074	8,000.24	82.1403	8,000.24	85.2398	8,000.24	79.5268	8,000.24	73.259	8,000.24	79.8117	8,000.24	70.6701	8,000.24	80.631	8,000.24	76.9037	8,000.24	80.4195	8,000.24	68.0115	8,000.24	78.7623	8,000.24	76.979	8,000.24	71.1531	8,000.24	77.8869	8,000.24	71.9013
8,282.23	105.852	8,282.23	105.698	8,282.23	104.736	8,282.23	103.99	8,282.23	102.629	8,282.23	101.387	8,282.23	100.521	8,282.23	99.9195	8,282.23	98.9869	8,282.23	97.6166	8,282.23	97.0006	8,282.23	93.3852	8,282.23	94.0664	8,282.23	90.3006	8,282.23	88.2393	8,282.23	87.2927	8,282.23	81.8503	8,282.23	85.1788	8,282.23	84.3051	8,282.23	83.5886	8,282.23	87.6075	8,282.23	81.131	8,282.23	84.4797	8,282.23	79.0617	8,282.23	71.469	8,282.23	78.7502	8,282.23	75.5762	8,282.23	80.8153	8,282.23	78.8201	8,282.23	80.7506	8,282.23	70.1716	8,282.23	79.8329	8,282.23	74.2546	8,282.23	76.3535	8,282.23	78.0799	8,282.23	73.674
8,574.46	107.442	8,574.46	106.928	8,574.46	105.771	8,574.46	104.467	8,574.46	102.906	8,574.46	101.997	8,574.46	100.399	8,574.46	99.9092	8,574.46	98.7093	8,574.46	96.5296	8,574.46	97.0731	8,574.46	93.5401	8,574.46	94.4121	8,574.46	90.3025	8,574.46	88.8075	8,574.46	86.1	8,574.46	74.3658	8,574.46	83.1603	8,574.46	75.1653	8,574.46	81.3013	8,574.46	83.3317	8,574.46	81.7276	8,574.46	82.1331	8,574.46	80.4972	8,574.46	75.8345	8,574.46	75.8345	8,574.46	78.5165	8,574.46	77.94	8,574.46	73.7039	8,574.46	81.855	8,574.46	75.2558	8,574.46	81.3013	8,574.46	73.8339	8,574.46	78.0326	8,574.46	79.8473	8,574.46	76.1852
8,876.22	107.618	8,876.22	106.703	8,876.22	106.393	8,876.22	104.293	8,876.22	103.923	8,876.22	101.977	8,876.22	101.4	8,876.22	99.4776	8,876.22	99.3602	8,876.22	96.7156	8,876.22	96.7224	8,876.22	92.5445	8,876.22	93.0377	8,876.22	87.5971	8,876.22	86.4478	8,876.22	86.3284	8,876.22	76.2928	8,876.22	83.9505	8,876.22	78.9723	8,876.22	81.7737	8,876.22	82.0507	8,876.22	81.2443	8,876.22	75.0765	8,876.22	80.6611	8,876.22	72.5795	8,876.22	79.1665	8,876.22	72.8604	8,876.22	77.203	8,876.22	66.1522	8,876.22	80.9037	8,876.22	73.7756	8,876.22	79.0907	8,876.22	73.8348	8,876.22	72.5434	8,876.22	74.8456	8,876.22	70.4788
9,189.7	106.946	9,189.7	105.684	9,189.7	106.25	9,189.7	103.479	9,189.7	104.097	9,189.7	101.761	9,189.7	101.789	9,189.7	99.5614	9,189.7	99.9877	9,189.7	96.1058	9,189.7	97.0383	9,189.7	90.7366	9,189.7	92.6926	9,189.7	89.2029	9,189.7	87.2474	9,189.7	87.7381	9,189.7	83.0762	9,189.7	84.1455	9,189.7	84.7287	9,189.7	81.7005	9,189.7	85.8957	9,189.7	79.2086	9,189.7	81.7889	9,189.7	79.7561	9,189.7	64.2307	9,189.7	80.5869	9,189.7	68.3503	9,189.7	75.5565	9,189.7	71.8221	9,189.7	78.9198	9,189.7	71.0561	9,189.7	78.7675	9,189.7	79.396	9,189.7	73.5385	9,189.7	77.5334	9,189.7	73.6889
9,513.43	106.232	9,513.43	104.8	9,513.43	105.754	9,513.43	103.22	9,513.43	103.681	9,513.43	102.092	9,513.43	101.816	9,513.43	99.5355	9,513.43	100.035	9,513.43	95.71	9,513.43	96.7047	9,513.43	92.0289	9,513.43	92.6885	9,513.43	89.1748	9,513.43	86.7271	9,513.43	84.8868	9,513.43	78.9172	9,513.43	83.6239	9,513.43	85.3546	9,513.43	81.6946	9,513.43	88.5957	9,513.43	76.3479	9,513.43	84.1129	9,513.43	78.1829	9,513.43	66.6877	9,513.43	81.74	9,513.43	68.6103	9,513.43	78.1373	9,513.43	76.5876	9,513.43	75.0101	9,513.43	69.9094	9,513.43	78.1358	9,513.43	79.8012	9,513.43	71.5303	9,513.43	77.2053	9,513.43	75.1628
9,848.88	105.999	9,848.88	104.908	9,848.88	105.438	9,848.88	103.777	9,848.88	103.526	9,848.88	102.302	9,848.88	102.126	9,848.88	99.7353	9,848.88	100.308	9,848.88	96.3125	9,848.88	97.4313	9,848.88	91.4678	9,848.88	93.5425	9,848.88	88.1304	9,848.88	87.6717	9,848.88	85.5831	9,848.88	56.1929	9,848.88	84.2933	9,848.88	79.8114	9,848.88	82.2993	9,848.88	86.8561	9,848.88	79.5575	9,848.88	84.8269	9,848.88	78.0705	9,848.88	59.0056	9,848.88	80.1523	9,848.88	56.3261	9,848.88	78.5352	9,848.88	77.8329	9,848.88	73.8492	9,848.88	65.7904	9,848.88	79.8001	9,848.88	77.0763	9,848.88	76.7541	9,848.88	77.6684	9,848.88	78.0891
10,196.8	106.739	10,196.8	106.205	10,196.8	105.479	10,196.8	104.954	10,196.8	103.368	10,196.8	103.104	10,196.8	101.899	10,196.8	100.057	10,196.8	99.8739	10,196.8	96.2131	10,196.8	96.1543	10,196.8	91.6811	10,196.8	92.7868	10,196.8	89.5699	10,196.8	88.4724	10,196.8	86.7821	10,196.8	75.7585	10,196.8	82.9161	10,196.8	76.3867	10,196.8	81.169	10,196.8	88.2087	10,196.8	80.9532	10,196.8	85.7339	10,196.8	78.9438	10,196.8	52.4072	10,196.8	77.1972	10,196.8	39.8224	10,196.8	77.5446	10,196.8	78.4015	10,196.8	76.4191	10,196.8	72.8354	10,196.8	80.7092	10,196.8	74.6384	10,196.8	78.8695	10,196.8	79.4012	10,196.8	78.7909
10,556.4	107.368	10,556.4	106.84	10,556.4	105.957	10,556.4	105.027	10,556.4	103.916	10,556.4	102.611	10,556.4	102.18	10,556.4	99.5347	10,556.4	99.4909	10,556.4	95.6817	10,556.4	95.9382	10,556.4	91.0138	10,556.4	92.9057	10,556.4	89.8651	10,556.4	87.7236	10,556.4	85.5967	10,556.4	78.0785	10,556.4	82.7638	10,556.4	78.9476	10,556.4	81.6656	10,556.4	86.6824	10,556.4	78.979	10,556.4	83.2896	10,556.4	77.9199	10,556.4	61.8303	10,556.4	78.0832	10,556.4	70.934	10,556.4	75.5557	10,556.4	72.6925	10,556.4	74.0225	10,556.4	70.903	10,556.4	79.3448	10,556.4	77.6885	10,556.4	78.8656	10,556.4	80.7873	10,556.4	79.2604
10,928.5	107.74	10,928.5	106.648	10,928.5	106.406	10,928.5	104.236	10,928.5	104.123	10,928.5	102.349	10,928.5	101.833	10,928.5	99.1415	10,928.5	98.7796	10,928.5	94.7847	10,928.5	94.3824	10,928.5	91.1314	10,928.5	92.7303	10,928.5	89.392	10,928.5	89.4996	10,928.5	86.194	10,928.5	75.4614	10,928.5	84.5604	10,928.5	78.0961	10,928.5	81.1516	10,928.5	85.7883	10,928.5	75.5585	10,928.5	83.0095	10,928.5	76.666	10,928.5	53.7991	10,928.5	77.6158	10,928.5	68.7775	10,928.5	75.7827	10,928.5	67.6058	10,928.5	73.265	10,928.5	70.2726	10,928.5	76.8265	10,928.5	80.7446	10,928.5	77.9036	10,928.5	83.6359	10,928.5	82.0986
11,313.7	107.717	11,313.7	106.342	11,313.7	106.498	11,313.7	104.266	11,313.7	104.412	11,313.7	102.719	11,313.7	102.232	11,313.7	98.6692	11,313.7	99.2143	11,313.7	94.2632	11,313.7	96.0842	11,313.7	90.775	11,313.7	94.0709	11,313.7	89.4507	11,313.7	89.5466	11,313.7	84.8934	11,313.7	74.3801	11,313.7	82.6553	11,313.7	82.0147	11,313.7	78.845	11,313.7	88.1292	11,313.7	73.3883	11,313.7	87.0903	11,313.7	76.9848	11,313.7	69.8204	11,313.7	78.5161	11,313.7	68.5642	11,313.7	73.2933	11,313.7	73.1535	11,313.7	67.6312	11,313.7	70.353	11,313.7	76.0154	11,313.7	84.3781	11,313.7	76.4215	11,313.7	85.262	11,313.7	83.5489
11,712.9	107.438	11,712.9	106.107	11,712.9	106.428	11,712.9	104.724	11,712.9	104.443	11,712.9	102.889	11,712.9	102.305	11,712.9	98.1791	11,712.9	99.9818	11,712.9	94.597	11,712.9	96.0895	11,712.9	90.7235	11,712.9	94.7884	11,712.9	88.905	11,712.9	90.9612	11,712.9	81.27	11,712.9	82.0224	11,712.9	80.8951	11,712.9	84.2253	11,712.9	76.9174	11,712.9	90.7922	11,712.9	73.6237	11,712.9	89.9151	11,712.9	76.2967	11,712.9	77.0193	11,712.9	77.6606	11,712.9	72.3776	11,712.9	73.6797	11,712.9	79.5223	11,712.9	72.8677	11,712.9	69.8769	11,712.9	80.8574	11,712.9	84.1161	11,712.9	78.026	11,712.9	86.5103	11,712.9	86.2569
12,126	107.289	12,126	106.559	12,126	106.017	12,126	105.164	12,126	103.902	12,126	102.558	12,126	102.193	12,126	98.2641	12,126	99.7061	12,126	94.4912	12,126	95.8824	12,126	91.4932	12,126	95.977	12,126	87.946	12,126	92.2041	12,126	77.61	12,126	86.0501	12,126	79.0917	12,126	85.9422	12,126	69.1123	12,126	91.3192	12,126	78.081	12,126	89.4582	12,126	75.5685	12,126	78.8988	12,126	73.7936	12,126	76.6967	12,126	73.312	12,126	81.4544	12,126	75.3551	12,126	49.7945	12,126	82.4104	12,126	83.9383	12,126	80.56	12,126	88.1185	12,126	88.0113
12,553.7	108.043	12,553.7	107.179	12,553.7	106.226	12,553.7	104.587	12,553.7	103.848	12,553.7	101.873	12,553.7	101.98	12,553.7	97.3987	12,553.7	98.709	12,553.7	94.1187	12,553.7	94.4584	12,553.7	90.7928	12,553.7	95.215	12,553.7	84.3289	12,553.7	91.7658	12,553.7	81.2477	12,553.7	84.4566	12,553.7	78.1803	12,553.7	85.3095	12,553.7	69.5056	12,553.7	88.3617	12,553.7	78.2156	12,553.7	86.2832	12,553.7	74.0528	12,553.7	72.2644	12,553.7	63.1338	12,553.7	76.6267	12,553.7	75.1266	12,553.7	75.5098	12,553.7	78.335	12,553.7	69.736	12,553.7	81.7638	12,553.7	83.483	12,553.7	80.9976	12,553.7	89.3018	12,553.7	88.8361
12,996.1	108.602	12,996.1	107.449	12,996.1	106.447	12,996.1	104.43	12,996.1	103.936	12,996.1	101.789	12,996.1	101.474	12,996.1	96.7168	12,996.1	97.5328	12,996.1	94.513	12,996.1	94.8225	12,996.1	89.1	12,996.1	95.7726	12,996.1	85.3644	12,996.1	91.6135	12,996.1	80.309	12,996.1	84.5278	12,996.1	77.6169	12,996.1	86.0568	12,996.1	64.8535	12,996.1	89.736	12,996.1	77.2991	12,996.1	88.4522	12,996.1	75.2482	12,996.1	61.7904	12,996.1	56.4904	12,996.1	71.2271	12,996.1	74.1059	12,996.1	77.1148	12,996.1	79.2334	12,996.1	76.6065	12,996.1	81.79	12,996.1	87.5193	12,996.1	79.4895	12,996.1	91.8686	12,996.1	90.3026
13,454.6	108.891	13,454.6	107.645	13,454.6	106.376	13,454.6	104.249	13,454.6	104.203	13,454.6	101.865	13,454.6	101.743	13,454.6	96.4266	13,454.6	98.3491	13,454.6	94.7568	13,454.6	94.6345	13,454.6	88.1122	13,454.6	96.5211	13,454.6	84.4	13,454.6	92.1047	13,454.6	80.4349	13,454.6	86.9797	13,454.6	79.1997	13,454.6	90.0325	13,454.6	65.157	13,454.6	91.664	13,454.6	79.4267	13,454.6	90.924	13,454.6	75.7778	13,454.6	76.4474	13,454.6	64.3018	13,454.6	79.941	13,454.6	76.3983	13,454.6	81.7001	13,454.6	81.4353	13,454.6	79.3609	13,454.6	85.0826	13,454.6	89.5364	13,454.6	79.4207	13,454.6	93.4225	13,454.6	91.7008
13,928.5	108.351	13,928.5	107.118	13,928.5	106.125	13,928.5	104.058	13,928.5	104.355	13,928.5	101.528	13,928.5	101.342	13,928.5	96.8034	13,928.5	98.3064	13,928.5	95.36	13,928.5	95.6583	13,928.5	87.3745	13,928.5	98.1546	13,928.5	85.3486	13,928.5	93.3692	13,928.5	83.6965	13,928.5	91.2867	13,928.5	77.2682	13,928.5	92.0847	13,928.5	68.52	13,928.5	94.5159	13,928.5	80.2983	13,928.5	93.9924	13,928.5	74.5688	13,928.5	78.3362	13,928.5	74.7032	13,928.5	80.5943	13,928.5	76.6283	13,928.5	85.542	13,928.5	82.6439	13,928.5	79.0873	13,928.5	87.3796	13,928.5	90.629	13,928.5	80.93	13,928.5	93.9932	13,928.5	92.9971
14,419.9	107.808	14,419.9	106.826	14,419.9	105.576	14,419.9	104.089	14,419.9	103.893	14,419.9	101.278	14,419.9	101.114	14,419.9	97.3927	14,419.9	98.2622	14,419.9	94.8697	14,419.9	95.678	14,419.9	87.3715	14,419.9	98.905	14,419.9	85.3024	14,419.9	92.9241	14,419.9	84.6952	14,419.9	92.5055	14,419.9	74.7539	14,419.9	93.1947	14,419.9	76.3904	14,419.9	95.3274	14,419.9	80.4742	14,419.9	93.7513	14,419.9	72.971	14,419.9	77.6729	14,419.9	76.977	14,419.9	81.9799	14,419.9	77.7745	14,419.9	85.8358	14,419.9	83.1476	14,419.9	79.0449	14,419.9	88.262	14,419.9	89.6099	14,419.9	81.3016	14,419.9	93.7991	14,419.9	93.2601
14,928.2	108.815	14,928.2	107.846	14,928.2	106.066	14,928.2	103.998	14,928.2	103.966	14,928.2	100.894	14,928.2	100.601	14,928.2	96.3938	14,928.2	97.3154	14,928.2	93.5033	14,928.2	95.8017	14,928.2	86.8597	14,928.2	98.0677	14,928.2	85.6905	14,928.2	91.6189	14,928.2	85.1809	14,928.2	92.1863	14,928.2	74.649	14,928.2	92.8468	14,928.2	77.7054	14,928.2	94.8788	14,928.2	79.133	14,928.2	93.4471	14,928.2	72.335	14,928.2	77.8014	14,928.2	79.5438	14,928.2	82.0713	14,928.2	77.4274	14,928.2	85.1658	14,928.2	82.8771	14,928.2	79.4229	14,928.2	88.0984	14,928.2	89.2387	14,928.2	80.6436	14,928.2	94.2484	14,928.2	93.5216
15,454.8	109.199	15,454.8	108.263	15,454.8	105.985	15,454.8	103.869	15,454.8	104.316	15,454.8	101.302	15,454.8	100.399	15,454.8	97.7646	15,454.8	98.4842	15,454.8	94.4713	15,454.8	96.4575	15,454.8	90.8116	15,454.8	98.5206	15,454.8	87.5534	15,454.8	93.3666	15,454.8	86.4046	15,454.8	92.8963	15,454.8	75.469	15,454.8	94.6913	15,454.8	81.9909	15,454.8	96.3469	15,454.8	79.5521	15,454.8	95.4834	15,454.8	71.7571	15,454.8	81.9306	15,454.8	81.8049	15,454.8	84.1115	15,454.8	80.6172	15,454.8	87.7528	15,454.8	84.4712	15,454.8	80.623	15,454.8	90.7461	15,454.8	90.6636	15,454.8	80.4753	15,454.8	95.2795	15,454.8	95.2443
15,999.8	108.868	15,999.8	108.149	15,999.8	105.568	15,999.8	104.094	15,999.8	104.402	15,999.8	102.209	15,999.8	100.131	15,999.8	98.5335	15,999.8	99.0351	15,999.8	95.3097	15,999.8	95.0249	15,999.8	92.2581	15,999.8	98.4179	15,999.8	86.0284	15,999.8	93.1786	15,999.8	88.6752	15,999.8	93.8981	15,999.8	77.5124	15,999.8	95.9155	15,999.8	84.3743	15,999.8	97.4659	15,999.8	79.5548	15,999.8	96.0683	15,999.8	73.4635	15,999.8	82.688	15,999.8	84.2796	15,999.8	84.2478	15,999.8	81.0665	15,999.8	89.4087	15,999.8	84.8446	15,999.8	80.0979	15,999.8	91.6193	15,999.8	90.7792	15,999.8	83.4281	15,999.8	95.475	15,999.8	95.5378
16,564.5	108.117	16,564.5	107.599	16,564.5	105.111	16,564.5	104.096	16,564.5	104.11	16,564.5	102.655	16,564.5	99.3746	16,564.5	98.7139	16,564.5	98.6531	16,564.5	95.8938	16,564.5	92.8647	16,564.5	91.9148	16,564.5	98.5041	16,564.5	84.233	16,564.5	93.3432	16,564.5	88.8213	16,564.5	94.0578	16,564.5	81.2192	16,564.5	95.858	16,564.5	85.9275	16,564.5	96.9482	16,564.5	78.4786	16,564.5	95.6325	16,564.5	73.7912	16,564.5	82.022	16,564.5	86.0409	16,564.5	82.7003	16,564.5	80.7432	16,564.5	89.4379	16,564.5	84.788	16,564.5	78.2466	16,564.5	91.8591	16,564.5	88.4143	16,564.5	85.0498	16,564.5	95.6308	16,564.5	95.753
17,148.2	107.784	17,148.2	107.643	17,148.2	104.864	17,148.2	104.438	17,148.2	103.444	17,148.2	102.941	17,148.2	97.9451	17,148.2	98.259	17,148.2	97.279	17,148.2	95.6408	17,148.2	90.0309	17,148.2	90.5304	17,148.2	97.8067	17,148.2	81.496	17,148.2	92.7918	17,148.2	89.3797	17,148.2	93.1609	17,148.2	81.9663	17,148.2	94.7143	17,148.2	86.4033	17,148.2	95.6488	17,148.2	75.4459	17,148.2	94.8248	17,148.2	74.5379	17,148.2	77.4431	17,148.2	86.867	17,148.2	80.3758	17,148.2	78.9465	17,148.2	89.4157	17,148.2	85.0373	17,148.2	75.6915	17,148.2	91.1883	17,148.2	86.4566	17,148.2	86.1792	17,148.2	95.9896	17,148.2	95.4349
17,753.2	107.941	17,753.2	108.135	17,753.2	104.464	17,753.2	104.759	17,753.2	102.613	17,753.2	103.027	17,753.2	96.1433	17,753.2	97.2164	17,753.2	96.5145	17,753.2	95.0522	17,753.2	89.4362	17,753.2	88.5905	17,753.2	97.531	17,753.2	80.2516	17,753.2	92.2681	17,753.2	88.9592	17,753.2	93.2017	17,753.2	83.1066	17,753.2	93.8866	17,753.2	87.1748	17,753.2	96.0716	17,753.2	74.6463	17,753.2	95.5731	17,753.2	72.1526	17,753.2	76.6853	17,753.2	87.6549	17,753.2	80.3054	17,753.2	76.721	17,753.2	89.2045	17,753.2	85.3518	17,753.2	73.6057	17,753.2	91.0297	17,753.2	87.1668	17,753.2	87.1968	17,753.2	96.5156	17,753.2	95.3558
18,379.4	106.974	18,379.4	107.634	18,379.4	103.28	18,379.4	104.221	18,379.4	101.602	18,379.4	102.351	18,379.4	95.6395	18,379.4	94.91	18,379.4	96.6529	18,379.4	94.4402	18,379.4	87.3402	18,379.4	86.4819	18,379.4	97.556	18,379.4	79.923	18,379.4	92.4823	18,379.4	88.9739	18,379.4	93.4371	18,379.4	84.1061	18,379.4	92.9616	18,379.4	87.5601	18,379.4	96.4368	18,379.4	76.3914	18,379.4	96.129	18,379.4	74.546	18,379.4	75.1065	18,379.4	89.3883	18,379.4	79.0192	18,379.4	70.7285	18,379.4	89.3887	18,379.4	86.4105	18,379.4	77.1026	18,379.4	90.8788	18,379.4	87.8981	18,379.4	88.8782	18,379.4	96.4889	18,379.4	94.9155
19,027.6	104.834	19,027.6	106.22	19,027.6	102.028	19,027.6	102.858	19,027.6	100.22	19,027.6	100.211	19,027.6	96.1003	19,027.6	92.3162	19,027.6	95.9138	19,027.6	93.4297	19,027.6	85.284	19,027.6	83.4469	19,027.6	96.2944	19,027.6	80.9111	19,027.6	90.6108	19,027.6	87.8456	19,027.6	92.6424	19,027.6	83.7492	19,027.6	91.0247	19,027.6	86.7469	19,027.6	96.5535	19,027.6	77.6571	19,027.6	95.7042	19,027.6	74.1447	19,027.6	69.406	19,027.6	89.6663	19,027.6	77.2087	19,027.6	54.9202	19,027.6	88.7804	19,027.6	86.6113	19,027.6	74.4659	19,027.6	88.3473	19,027.6	84.9354	19,027.6	88.9088	19,027.6	95.1268	19,027.6	92.685
19,698.5	104.41	19,698.5	104.948	19,698.5	102.466	19,698.5	100.082	19,698.5	100.065	19,698.5	97.2383	19,698.5	95.0705	19,698.5	90.716	19,698.5	93.8478	19,698.5	91.4593	19,698.5	83.6745	19,698.5	81.6741	19,698.5	93.7842	19,698.5	77.9007	19,698.5	89.9959	19,698.5	84.5492	19,698.5	89.5825	19,698.5	80.9116	19,698.5	89.5667	19,698.5	85.4956	19,698.5	94.2638	19,698.5	76.7044	19,698.5	93.8255	19,698.5	60.7349	19,698.5	74.6119	19,698.5	86.9719	19,698.5	78.8343	19,698.5	65.1926	19,698.5	86.5161	19,698.5	84.7118	19,698.5	77.8897	19,698.5	86.6204	19,698.5	86.7152	19,698.5	86.5779	19,698.5	93.7167	19,698.5	90.5167
19,999.5	104.089	19,999.5	104.555	19,999.5	101.816	19,999.5	98.777	19,999.5	99.1461	19,999.5	96.4883	19,999.5	93.9083	19,999.5	88.9241	19,999.5	92.5597	19,999.5	89.9536	19,999.5	80.9333	19,999.5	80.0437	19,999.5	91.881	19,999.5	77.665	19,999.5	88.5208	19,999.5	83.4123	19,999.5	90.314	19,999.5	80.6881	19,999.5	88.8222	19,999.5	85.238	19,999.5	94.0818	19,999.5	74.6618	19,999.5	93.7105	19,999.5	63.7308	19,999.5	76.002	19,999.5	86.241	19,999.5	79.3955	19,999.5	55.6919	19,999.5	86.1637	19,999.5	85.1567	19,999.5	79.3444	19,999.5	85.2533	19,999.5	86.8464	19,999.5	85.6539	19,999.5	93.2617	19,999.5	90.2048
